LabVIEW Measurement	
Writer_Version	2
Reader_Version	2
Separator	Tab
Decimal_Separator	.
Multi_Headings	No
X_Columns	One
Time_Pref	Absolute
Operator	AlunosGDS-JT
Date	2019/10/09
Time	15:11:28.9575998562499047959
***End_of_Header***	
	
Channels	2		
Samples	2048	2048	
Date	2019/10/09	2019/10/09	
Time	15:14:25.5885764187499035271	15:14:25.5885764187499035271	
Y_Unit_Label	g	Newtons	
X_Dimension	Time	Time	
X0	0.0000000000000000E+0	0.0000000000000000E+0	
Delta_X	0.000605	0.000605	
***End_of_Header***			
X_Value	Acceleration (Trigger)	Force (Trigger)	Comment
0.000000	45.834176	3.898891
0.000605	42.850158	8.711080
0.001211	39.864317	13.197107
0.001816	36.699266	17.901118
0.002422	33.339815	22.669928
0.003027	29.923261	27.083565
0.003633	26.468434	31.647676
0.004238	22.889678	35.980788
0.004844	19.222835	39.864647
0.005449	15.570572	43.935312
0.006055	11.821109	47.844928
0.006660	8.107489	51.476641
0.007266	4.334335	55.068770
0.007871	0.655949	58.317114
0.008477	-3.092906	61.555967
0.009082	-6.831433	64.436937
0.009687	-10.507996	67.006927
0.010293	-14.143249	69.626261
0.010898	-17.859906	72.054181
0.011504	-21.488477	73.580884
0.012109	-24.932977	75.676948
0.012715	-28.297287	77.409162
0.013320	-31.615427	78.885707
0.013926	-34.771974	80.515436
0.014531	-37.817957	81.508023
0.015137	-40.828704	82.733778
0.015742	-43.567294	83.370107
0.016348	-46.290696	84.114886
0.016953	-48.989192	84.250448
0.017559	-51.501793	83.986373
0.018164	-53.879530	83.503229
0.018770	-56.039177	83.126908
0.019375	-58.190926	82.700429
0.019980	-59.930793	81.429668
0.020586	-61.790945	80.459314
0.021191	-63.368003	78.935051
0.021797	-64.835105	77.545538
0.022402	-66.005141	75.708669
0.023008	-67.057931	73.821913
0.023613	-67.898704	71.859785
0.024219	-68.474610	69.197342
0.024824	-69.037151	66.382798
0.025430	-69.255849	63.280049
0.026035	-69.353049	60.315030
0.026641	-69.287439	56.908350
0.027246	-68.926587	53.762492
0.027852	-68.518957	50.248989
0.028457	-67.842207	46.396580
0.029062	-66.963161	42.505129
0.029668	-65.913409	38.724298
0.030273	-64.613369	35.102887
0.030879	-62.975561	31.173479
0.031484	-61.382100	27.236479
0.032090	-59.384655	23.118368
0.032695	-57.460717	18.838667
0.033301	-55.304715	14.532938
0.033906	-53.010812	10.263540
0.034512	-50.540128	6.067887
0.035117	-47.957057	1.434097
0.035723	-45.247019	-2.837470
0.036328	-42.427025	-7.200135
0.036934	-39.482494	-11.440252
0.037539	-36.358752	-15.823523
0.038145	-33.123839	-20.094277
0.038750	-29.812988	-24.209134
0.039355	-26.396433	-28.362220
0.039961	-22.873567	-32.414719
0.040566	-19.362850	-36.365817
0.041172	-15.693577	-40.106522
0.041777	-12.131224	-44.024543
0.042383	-8.446763	-47.710753
0.042988	-4.868615	-51.400216
0.043594	-1.121583	-55.024338
0.044199	2.548905	-58.322568
0.044805	6.227291	-61.226312
0.045410	9.897171	-64.398740
0.046016	13.519059	-67.377044
0.046621	17.183472	-70.011832
0.047227	20.776201	-72.497502
0.047832	24.274160	-74.773593
0.048438	27.724127	-76.945029
0.049043	31.072035	-78.904989
0.049648	34.332463	-80.747551
0.050254	37.558264	-82.404664
0.050859	40.716026	-83.747815
0.051465	43.768083	-84.627886
0.052070	46.749064	-85.499551
0.052676	49.610975	-86.130458
0.053281	52.268768	-86.199595
0.053887	54.816604	-86.142930
0.054492	57.205277	-85.572484
0.055098	59.506470	-84.687262
0.055703	61.573777	-83.423008
0.056309	63.399908	-81.931010
0.056914	65.091176	-80.475884
0.057520	66.541875	-79.232778
0.058125	67.675462	-77.683572
0.058730	68.785356	-75.660170
0.059336	69.687487	-73.231707
0.059941	70.321712	-70.579567
0.060547	70.729342	-68.152731
0.061152	70.887291	-65.675737
0.061758	70.685602	-62.604438
0.062363	70.462044	-59.215381
0.062969	70.157081	-55.881091
0.063574	69.624307	-51.971204
0.064180	68.904425	-48.346269
0.064785	67.855888	-44.908138
0.065391	66.665804	-41.237925
0.065996	65.291042	-37.264595
0.066602	63.774126	-32.753896
0.067207	62.158795	-28.345682
0.067812	60.276774	-24.054593
0.068418	58.174232	-19.506479
0.069023	55.959303	-15.226235
0.069629	53.580351	-10.931622
0.070234	51.084152	-5.789474
0.070840	48.544213	-0.787226
0.071445	45.879738	4.039062
0.072051	42.953432	8.902765
0.072656	39.924459	13.477721
0.073262	36.660993	18.113680
0.073867	33.387200	22.762924
0.074473	30.041722	27.399154
0.075078	26.484229	31.813062
0.075684	22.908510	36.085713
0.076289	19.295127	39.902876
0.076895	15.526832	44.059758
0.077500	11.875784	48.040680
0.078105	8.055245	51.397744
0.078711	4.378074	55.161495
0.079316	0.621322	58.504461
0.079922	-3.101410	61.641372
0.080527	-6.826573	64.547827
0.081133	-10.544445	67.280220
0.081738	-14.216756	69.710852
0.082344	-17.810699	72.081023
0.082949	-21.424083	73.797783
0.083555	-24.940267	75.812781
0.084160	-28.338597	77.428141
0.084766	-31.600240	78.791084
0.085371	-34.853986	80.598943
0.085977	-37.890249	81.546794
0.086582	-40.854219	82.596046
0.087188	-43.668138	83.329438
0.087793	-46.437103	84.141727
0.088398	-49.033539	84.333141
0.089004	-51.458661	84.005352
0.089609	-53.968832	83.697897
0.090215	-56.202593	83.045842
0.090820	-58.269901	82.549413
0.091426	-60.053507	81.508295
0.092031	-61.907584	80.486968
0.092637	-63.493754	78.897094
0.093242	-64.951136	77.303424
0.093848	-66.147295	75.605100
0.094453	-67.147840	73.748168
0.095059	-67.989829	71.573478
0.095664	-68.552370	69.124952
0.096270	-69.044441	66.352703
0.096875	-69.301412	63.211996
0.097480	-69.435668	60.125785
0.098086	-69.363984	56.937090
0.098691	-69.065703	53.632895
0.099297	-68.454563	50.016093
0.099902	-67.910247	46.372992
0.100508	-67.050033	42.465003
0.101113	-65.978411	38.482183
0.101719	-64.657108	34.769133
0.102324	-63.116500	31.109222
0.102930	-61.447710	27.064315
0.103535	-59.566903	22.775396
0.104141	-57.568243	18.648609
0.104746	-55.357567	14.369992
0.105352	-53.121984	10.117946
0.105957	-50.642794	5.785375
0.106563	-48.045144	1.468259
0.107168	-45.291366	-2.961374
0.107773	-42.440997	-7.449570
0.108379	-39.461839	-11.670979
0.108984	-36.345995	-15.846297
0.109590	-33.101969	-20.178868
0.110195	-29.751024	-24.549938
0.110801	-26.411013	-28.406956
0.111406	-22.872352	-32.511239
0.112012	-19.255931	-36.582988
0.112617	-15.651660	-40.254285
0.113223	-11.997575	-44.049487
0.113828	-8.446156	-47.838724
0.114434	-4.730106	-51.527915
0.115039	-1.063871	-54.963606
0.115645	2.689237	-58.259667
0.116250	6.373090	-61.393867
0.116855	9.990725	-64.558162
0.117461	13.645418	-67.404698
0.118066	17.221744	-70.143599
0.118672	20.849100	-72.802788
0.119277	24.353134	-74.755969
0.119883	27.803709	-76.927677
0.120488	31.211759	-78.976023
0.121094	34.481907	-80.848952
0.121699	37.765420	-82.330105
0.122305	40.894022	-83.619031
0.122910	43.984352	-84.641171
0.123516	46.887573	-85.389203
0.124121	49.721539	-85.929826
0.124727	52.420034	-86.277679
0.125332	54.983058	-86.152419
0.125938	57.380235	-85.460780
0.126543	59.550209	-84.586946
0.127148	61.695276	-83.502990
0.127754	63.540240	-81.862144
0.128359	65.228470	-80.296942
0.128965	66.621457	-79.208648
0.129570	67.826121	-77.595186
0.130176	68.985222	-75.500749
0.130781	69.793799	-73.048969
0.131387	70.445034	-70.509346
0.131992	70.836261	-68.026658
0.132598	70.926170	-65.436605
0.133203	70.772474	-62.533132
0.133809	70.545878	-59.220261
0.134414	70.182596	-55.716248
0.135020	69.584820	-51.781146
0.135625	68.875265	-48.398596
0.136230	67.882618	-44.738143
0.136836	66.657907	-40.936435
0.137441	65.294687	-37.001875
0.138047	63.771696	-32.615893
0.138652	62.079821	-28.234520
0.139258	60.217847	-23.828204
0.139863	58.120165	-19.451983
0.140469	55.849954	-15.141373
0.141074	53.460067	-10.692491
0.141680	51.003962	-5.675060
0.142285	48.425144	-0.863141
0.142891	45.734546	4.168660
0.143496	42.800951	9.008233
0.144102	39.747071	13.383370
0.144707	36.542532	18.140250
0.145313	33.280281	23.028355
0.145918	29.793257	27.521160
0.146523	26.408899	31.909582
0.147129	22.720794	36.168949
0.147734	19.044231	40.089410
0.148340	15.387108	44.087412
0.148945	11.646758	48.028479
0.149551	7.930708	51.669682
0.150156	4.186713	55.244188
0.150762	0.445756	58.428546
0.151367	-3.352914	61.592027
0.151973	-7.025224	64.613710
0.152578	-10.808706	67.144929
0.153184	-14.400827	69.614060
0.153789	-18.062202	72.161004
0.154395	-21.645211	73.924127
0.155000	-25.214855	75.825524
0.155605	-28.562762	77.454983
0.156211	-31.809218	78.900076
0.156816	-35.028337	80.573186
0.157422	-38.036047	81.545981
0.158027	-41.070488	82.768482
0.158633	-43.870434	83.404269
0.159238	-46.641221	84.046834
0.159844	-49.214572	84.206797
0.160449	-51.725959	84.055781
0.161055	-54.114024	83.588633
0.161660	-56.293110	82.955286
0.162266	-58.362847	82.597402
0.162871	-60.241223	81.522664
0.163477	-62.067355	80.373096
0.164082	-63.573944	78.854799
0.164687	-65.036186	77.386930
0.165293	-66.229307	75.547621
0.165898	-67.237142	73.671439
0.166504	-68.053616	71.645054
0.167109	-68.645924	68.986407
0.167715	-69.103976	66.157493
0.168320	-69.407723	63.002417
0.168926	-69.454500	60.215257
0.169531	-69.348189	56.782006
0.170137	-69.060236	53.430093
0.170742	-68.563305	50.013653
0.171348	-67.899312	46.346964
0.171953	-66.920029	42.433281
0.172559	-65.955326	38.476490
0.173164	-64.615191	34.868364
0.173770	-63.060003	30.954681
0.174375	-61.332893	26.981893
0.174980	-59.417460	22.806033
0.175586	-57.412117	18.641017
0.176191	-55.285275	14.204606
0.176797	-52.931230	9.880441
0.177402	-50.502463	5.832009
0.178008	-47.936402	1.277387
0.178613	-45.200242	-3.204573
0.179219	-42.298236	-7.604111
0.179824	-39.285058	-11.760992
0.180430	-36.083557	-16.007074
0.181035	-32.884486	-20.298976
0.181641	-29.596720	-24.449893
0.182246	-26.189885	-28.547398
0.182852	-22.668233	-32.625111
0.183457	-19.060925	-36.586241
0.184062	-15.504039	-40.283567
0.184668	-11.862711	-44.170951
0.185273	-8.193438	-48.010617
0.185879	-4.555147	-51.454441
0.186484	-0.969101	-55.028947
0.187090	2.804053	-58.389807
0.187695	6.524356	-61.477102
0.188301	10.159002	-64.486856
0.188906	13.790610	-67.461363
0.189512	17.417965	-70.185894
0.190117	20.923215	-72.643909
0.190723	24.484961	-74.902106
0.191328	27.923993	-77.039109
0.191934	31.310173	-79.023470
0.192539	34.572424	-80.828346
0.193145	37.818880	-82.445062
0.193750	40.911032	-83.899374
0.194355	43.961874	-84.631139
0.194961	46.995100	-85.384323
0.195566	49.796261	-86.093856
0.196172	52.461344	-86.331090
0.196777	55.005535	-86.154046
0.197383	57.355936	-85.499551
0.197988	59.617641	-84.611618
0.198594	61.664901	-83.292326
0.199199	63.526267	-81.816053
0.199805	65.185338	-80.413797
0.200410	66.582577	-79.250943
0.201016	67.809718	-77.552890
0.201621	68.814516	-75.610825
0.202227	69.672300	-73.255295
0.202832	70.355125	-70.471117
0.203437	70.697752	-67.911972
0.204043	70.773081	-65.477274
0.204648	70.655835	-62.507375
0.205254	70.330825	-59.132688
0.205859	70.047124	-55.701065
0.206465	69.418366	-51.777621
0.207070	68.718532	-48.164344
0.207676	67.714949	-44.707777
0.208281	66.509678	-41.053561
0.208887	65.142813	-37.021938
0.209492	63.639262	-32.556517
0.210098	61.933414	-28.165926
0.210703	60.052001	-23.921200
0.211309	57.917869	-19.409958
0.211914	55.658593	-14.946706
0.212520	53.292398	-10.634199
0.213125	50.761572	-5.608363
0.213730	48.286635	-0.612080
0.214336	45.517670	4.247286
0.214941	42.579822	9.052697
0.215547	39.589122	13.668593
0.216152	36.368788	18.288555
0.216758	33.086490	22.957862
0.217363	29.643205	27.497572
0.217969	26.184126	31.939677
0.218574	22.537938	36.287430
0.219180	18.869880	39.990720
0.219785	15.227944	44.169292
0.220391	11.493669	48.195763
0.220996	7.781264	51.800906
0.221602	3.994137	55.336370
0.222207	0.388651	58.639210
0.222812	-3.475020	61.760395
0.223418	-7.108451	64.641907
0.224023	-10.848193	67.404395
0.224629	-14.525971	69.820386
0.225234	-18.243236	72.131723
0.225840	-21.764888	73.809984
0.226445	-25.236117	75.846943
0.227051	-28.642952	77.550418
0.227656	-31.905203	78.801658
0.228262	-35.058104	80.491849
0.228867	-38.142967	81.615118
0.229473	-41.091750	82.769024
0.230078	-43.846742	83.417825
0.230684	-46.607809	84.146337
0.231289	-49.232190	84.266174
0.231895	-51.730211	83.942993
0.232500	-54.131641	83.592700
0.233105	-56.271848	83.054518
0.233711	-58.392007	82.534501
0.234316	-60.182296	81.359176
0.234922	-62.007820	80.285523
0.235527	-63.553897	78.840158
0.236133	-65.027073	77.205006
0.236738	-66.191642	75.350785
0.237344	-67.165457	73.671168
0.237949	-67.994081	71.613604
0.238555	-68.573632	68.943569
0.239160	-69.056591	66.127127
0.239766	-69.313561	63.038477
0.240371	-69.418051	59.980734
0.240977	-69.287439	56.739711
0.241582	-68.986729	53.453410
0.242187	-68.469750	49.871041
0.242793	-67.835525	46.120847
0.243398	-66.980779	42.182491
0.244004	-65.968691	38.465102
0.244609	-64.564769	34.655260
0.245215	-63.031450	30.762996
0.245820	-61.365698	26.961288
0.246426	-59.446619	22.717917
0.247031	-57.469829	18.484307
0.247637	-55.225741	14.134927
0.248242	-52.949455	9.930870
0.248848	-50.490313	5.566578
0.249453	-47.832520	1.227229
0.250059	-45.141922	-3.220569
0.250664	-42.324966	-7.669723
0.251270	-39.335480	-12.077937
0.251875	-36.205056	-16.294737
0.252480	-33.005377	-20.362419
0.253086	-29.613122	-24.692278
0.253691	-26.239700	-28.736643
0.254297	-22.704076	-32.699128
0.254902	-19.167844	-36.655378
0.255508	-15.543526	-40.440819
0.256113	-11.886403	-44.276960
0.256719	-8.299750	-47.962356
0.257324	-4.614682	-51.685168
0.257930	-0.948446	-55.162611
0.258535	2.655217	-58.461655
0.259141	6.419259	-61.558440
0.259746	10.054512	-64.696435
0.260352	13.718925	-67.650066
0.260957	17.329271	-70.099405
0.261562	20.804753	-72.822851
0.262168	24.380472	-75.090266
0.262773	27.879646	-77.138341
0.263379	31.230591	-79.058445
0.263984	34.472795	-80.896398
0.264590	37.716213	-82.549716
0.265195	40.867900	-83.745917
0.265801	43.916312	-84.786222
0.266406	46.886965	-85.514463
0.267012	49.756167	-86.148623
0.267617	52.444942	-86.293404
0.268223	54.926561	-86.314280
0.268828	57.376590	-85.639994
0.269434	59.576332	-84.530552
0.270039	61.605367	-83.348178
0.270645	63.512295	-81.906337
0.271250	65.148280	-80.369603
0.271855	66.574072	-79.139240
0.272461	67.750184	-77.559669
0.273066	68.833348	-75.526777
0.273672	69.682020	-73.018874
0.274277	70.335685	-70.397642
0.274883	70.639432	-67.956708
0.275488	70.762754	-65.363130
0.276094	70.662517	-62.384556
0.276699	70.395827	-59.114794
0.277305	70.050769	-55.754205
0.277910	69.435984	-51.552046
0.278516	68.734327	-48.043965
0.279121	67.753221	-44.585771
0.279727	66.509070	-40.938604
0.280332	65.088138	-36.885292
0.280938	63.664776	-32.404416
0.281543	61.921872	-28.057205
0.282148	60.093310	-23.554640
0.282754	58.048480	-19.176791
0.283359	55.693220	-14.937759
0.283965	53.317305	-10.485351
0.284570	50.832041	-5.356488
0.285176	48.223455	-0.544841
0.285781	45.617300	4.271958
0.286387	42.723799	9.333040
0.286992	39.566644	13.858380
0.287598	36.433183	18.508708
0.288203	33.043965	23.042996
0.288809	29.662038	27.739144
0.289414	26.213286	32.101267
0.290020	22.547658	36.294208
0.290625	18.930629	40.319323
0.291230	15.207289	44.350403
0.291836	11.517969	48.255139
0.292441	7.812246	51.833983
0.293047	4.040914	55.518295
0.293652	0.285377	58.668220
0.294258	-3.417308	61.706984
0.294863	-7.117563	64.785874
0.295469	-10.918055	67.516099
0.296074	-14.546018	69.903079
0.296680	-18.209824	72.243155
0.297285	-21.766103	73.998416
0.297891	-25.270137	75.922587
0.298496	-28.617437	77.588647
0.299102	-31.874828	79.037808
0.299707	-35.103667	80.650728
0.300312	-38.108947	81.537305
0.300918	-41.125770	82.672775
0.301523	-43.853424	83.438701
0.302129	-46.735991	84.057408
0.302734	-49.292939	84.087774
0.303340	-51.753904	84.002369
0.303945	-54.227018	83.682442
0.304551	-56.392739	82.988906
0.305156	-58.483739	82.472685
0.305762	-60.267346	81.397134
0.306367	-62.054598	80.354931
0.306973	-63.632263	78.704324
0.307578	-65.082963	77.290139
0.308184	-66.235989	75.463302
0.308789	-67.257797	73.520423
0.309395	-68.086421	71.415954
0.310000	-68.720038	68.890429
0.310605	-69.185987	66.094864
0.311211	-69.407723	62.670289
0.311816	-69.461790	59.881502
0.312422	-69.443566	56.659458
0.313027	-69.038973	53.346587
0.313633	-68.591249	49.664987
0.314238	-67.895059	46.040594
0.314844	-67.043958	42.155108
0.315449	-65.931634	38.182591
0.316055	-64.624304	34.564434
0.316660	-63.041778	30.647497
0.317266	-61.307378	26.683385
0.317871	-59.460592	22.373318
0.318477	-57.388425	18.327055
0.319082	-55.315042	14.020241
0.319688	-52.963427	9.536926
0.320293	-50.441713	5.386009
0.320898	-47.884157	1.066452
0.321504	-45.131595	-3.327121
0.322109	-42.296413	-7.851919
0.322715	-39.241319	-12.062483
0.323320	-36.165569	-16.357367
0.323926	-32.906355	-20.614023
0.324531	-29.602795	-24.791781
0.325137	-26.130350	-28.839670
0.325742	-22.700431	-32.869124
0.326348	-19.093122	-36.946837
0.326953	-15.492496	-40.657176
0.327559	-11.870608	-44.330643
0.328164	-8.211663	-48.244868
0.328770	-4.557577	-51.901254
0.329375	-0.908352	-55.289498
0.329980	2.749986	-58.586643
0.330586	6.526786	-61.708643
0.331191	10.205171	-64.723548
0.331797	13.788787	-67.634612
0.332402	17.433153	-70.321185
0.333008	21.010086	-72.817429
0.333613	24.507438	-75.079963
0.334219	27.986565	-77.156777
0.334824	31.364240	-79.255824
0.335430	34.585181	-81.037654
0.336035	37.854722	-82.445333
0.336641	40.942622	-83.896392
0.337246	44.085196	-84.869187
0.337852	47.054027	-85.539406
0.338457	49.836964	-86.026888
0.339062	52.602891	-86.327023
0.339668	55.093622	-86.142930
0.340273	57.385703	-85.513650
0.340879	59.653484	-84.605925
0.341484	61.717753	-83.307509
0.342090	63.597952	-81.801141
0.342695	65.236367	-80.266576
0.343301	66.585007	-79.217866
0.343906	67.793923	-77.611724
0.344512	68.871620	-75.322078
0.345117	69.760386	-72.906358
0.345723	70.414052	-70.482233
0.346328	70.785839	-67.847716
0.346934	70.814391	-65.236244
0.347539	70.667985	-62.331416
0.348145	70.459006	-58.958084
0.348750	70.059274	-55.510464
0.349355	69.534398	-51.507039
0.349961	68.721569	-48.006550
0.350566	67.759296	-44.575469
0.351172	66.462293	-40.812531
0.351777	65.159215	-36.857366
0.352383	63.629542	-32.442916
0.352988	61.920657	-27.790147
0.353594	60.076908	-23.397658
0.354199	57.906326	-19.109281
0.354805	55.714483	-14.740651
0.355410	53.316698	-10.277670
0.356016	50.794984	-5.293858
0.356621	48.160883	-0.371592
0.357227	45.489726	4.536033
0.357832	42.583467	9.364491
0.358438	39.562392	13.874105
0.359043	36.331123	18.490814
0.359648	33.022095	23.281856
0.360254	29.551473	27.791471
0.360859	26.110011	32.055176
0.361465	22.442561	36.544727
0.362070	18.760531	40.431569
0.362676	15.094295	44.408424
0.363281	11.260391	48.283607
0.363887	7.552238	51.917761
0.364492	3.851983	55.500672
0.365098	0.128036	58.762300
0.365703	-3.613529	61.920630
0.366309	-7.304064	64.796177
0.366914	-11.083902	67.524503
0.367520	-14.682097	69.840721
0.368125	-18.399970	72.296567
0.368730	-21.911902	74.026613
0.369336	-25.378271	75.837996
0.369941	-28.825808	77.614133
0.370547	-32.056469	79.144902
0.371152	-35.276803	80.633376
0.371758	-38.343440	81.572280
0.372363	-41.359048	82.802643
0.372969	-44.070908	83.376885
0.373574	-46.840480	84.085876
0.374180	-49.457571	84.223607
0.374785	-51.955592	83.966310
0.375391	-54.336975	83.546067
0.375996	-56.514238	82.896723
0.376602	-58.547526	82.469160
0.377207	-60.413145	81.288413
0.377812	-62.137217	80.097634
0.378418	-63.705163	78.670163
0.379023	-65.188059	77.291223
0.379629	-66.383611	75.348616
0.380234	-67.343454	73.370220
0.380840	-68.180582	71.421106
0.381445	-68.699384	68.762729
0.382051	-69.202997	65.960386
0.382656	-69.392536	62.814528
0.383262	-69.509783	59.813450
0.383867	-69.367629	56.531487
0.384473	-69.047478	53.134839
0.385078	-68.560267	49.650617
0.385684	-68.026278	45.924552
0.386289	-67.030593	41.834638
0.386895	-65.878782	38.210517
0.387500	-64.617621	34.565518
0.388105	-63.052713	30.553688
0.388711	-61.365698	26.555956
0.389316	-59.440544	22.409649
0.389922	-57.402397	18.229992
0.390527	-55.196581	13.877088
0.391133	-52.861368	9.612841
0.391738	-50.407694	5.369470
0.392344	-47.825838	0.938482
0.392949	-45.030143	-3.523144
0.393555	-42.203467	-7.957115
0.394160	-39.246179	-12.143549
0.394766	-36.054397	-16.639608
0.395371	-32.793969	-20.745518
0.395977	-29.500735	-24.838957
0.396582	-26.099976	-28.945680
0.397187	-22.484770	-32.927958
0.397793	-18.920594	-36.914573
0.398398	-15.422634	-40.717095
0.399004	-11.727239	-44.482202
0.399609	-8.129043	-48.206369
0.400215	-4.473743	-51.959004
0.400820	-0.834237	-55.376529
0.401426	2.856906	-58.848007
0.402031	6.640388	-61.780219
0.402637	10.263491	-64.771537
0.403242	13.925474	-67.852054
0.403848	17.479323	-70.438040
0.404453	21.036209	-72.875178
0.405059	24.503186	-75.122530
0.405664	28.018762	-77.264414
0.406270	31.429242	-79.166895
0.406875	34.676913	-81.018676
0.407480	37.919724	-82.608550
0.408086	41.024634	-83.829695
0.408691	44.117393	-84.859697
0.409297	47.050382	-85.485182
0.409902	49.890423	-86.181700
0.410508	52.550646	-86.362541
0.411113	55.084510	-86.010079
0.411719	57.457995	-85.574381
0.412324	59.720308	-84.666385
0.412930	61.776073	-83.231594
0.413535	63.571830	-81.778638
0.414141	65.285574	-80.315921
0.414746	66.660337	-79.068477
0.415352	67.844346	-77.441187
0.415957	68.889845	-75.428630
0.416563	69.725152	-72.910425
0.417168	70.340545	-70.336097
0.417773	70.744529	-67.748484
0.418379	70.774296	-65.344965
0.418984	70.632142	-62.262279
0.419590	70.352087	-58.797036
0.420195	70.056844	-55.450274
0.420801	69.447526	-51.496465
0.421406	68.739186	-47.873156
0.422012	67.710089	-44.424452
0.422617	66.442853	-40.769693
0.423223	65.062624	-36.633688
0.423828	63.543885	-32.231981
0.424434	61.890282	-27.814820
0.425039	59.976064	-23.411486
0.425645	57.828567	-18.998391
0.426250	55.557141	-14.636811
0.426855	53.180011	-10.341384
0.427461	50.735449	-5.147451
0.428066	48.077049	-0.146830
0.428672	45.454491	4.613033
0.429277	42.457108	9.398110
0.429883	39.358273	14.021868
0.430488	36.158595	18.655116
0.431094	32.862324	23.281585
0.431699	29.440909	27.963635
0.432305	25.907108	32.307322
0.432910	22.226292	36.471253
0.433516	18.611694	40.404456
0.434121	14.922374	44.483796
0.434727	11.213614	48.430286
0.435332	7.464759	51.876007
0.435937	3.713474	55.578484
0.436543	-0.056035	58.927415
0.437148	-3.770871	61.995460
0.437754	-7.446218	64.818409
0.438359	-11.136146	67.606654
0.438965	-14.836401	69.979807
0.439570	-18.569461	72.230412
0.440176	-22.091113	73.985944
0.440781	-25.565380	76.023716
0.441387	-28.966139	77.590816
0.441992	-32.125116	79.064107
0.442598	-35.414704	80.623615
0.443203	-38.452182	81.693473
0.443809	-41.380918	82.659489
0.444414	-44.187547	83.268164
0.445020	-46.889080	84.183481
0.445625	-49.515890	84.188632
0.446230	-52.048539	83.879550
0.446836	-54.468194	83.508652
0.447441	-56.558586	82.987821
0.448047	-58.625285	82.370200
0.448652	-60.459314	81.275399
0.449258	-62.240491	80.209608
0.449863	-63.789605	78.619734
0.450469	-65.260959	77.066461
0.451074	-66.386041	75.204378
0.451680	-67.392053	73.444508
0.452285	-68.180582	71.230505
0.452891	-68.701813	68.581618
0.453496	-69.231550	65.983974
0.454102	-69.420481	62.739968
0.454707	-69.532260	59.674092
0.455313	-69.348189	56.466960
0.455918	-69.038366	53.176050
0.456523	-68.531715	49.489298
0.457129	-67.902349	45.844571
0.457734	-66.983209	41.936039
0.458340	-65.845370	38.063296
0.458945	-64.582386	34.318795
0.459551	-62.986496	30.413788
0.460156	-61.222329	26.579815
0.460762	-59.341523	22.166721
0.461367	-57.274215	18.030445
0.461973	-55.159523	13.793581
0.462578	-52.799403	9.519032
0.463184	-50.320822	5.189444
0.463789	-47.687936	0.807529
0.464395	-44.970609	-3.530193
0.465000	-42.068603	-8.072072
0.465605	-39.145334	-12.259591
0.466211	-35.928646	-16.553390
0.466816	-32.719247	-20.764226
0.467422	-29.430874	-24.995395
0.468027	-25.964504	-29.089647
0.468633	-22.476265	-33.040203
0.469238	-18.898116	-37.139335
0.469844	-15.286555	-40.951075
0.470449	-11.691397	-44.529106
0.471055	-8.056144	-48.252460
0.471660	-4.383226	-52.050915
0.472266	-0.799002	-55.492841
0.472871	2.980835	-58.740642
0.473477	6.650108	-61.859930
0.474082	10.380737	-64.885138
0.474687	13.980148	-67.807589
0.475293	17.572877	-70.443191
0.475898	21.129156	-73.039480
0.476504	24.670854	-75.288187
0.477109	28.111102	-77.257365
0.477715	31.507609	-79.331196
0.478320	34.792337	-81.241540
0.478926	37.942201	-82.633493
0.479531	41.098141	-83.857079
0.480137	44.170245	-84.937239
0.480742	47.146973	-85.571399
0.481348	49.968790	-86.069184
0.481953	52.649668	-86.338953
0.482559	55.161662	-86.126662
0.483164	57.505379	-85.467830
0.483770	59.697831	-84.548717
0.484375	61.729903	-83.367970
0.484980	63.679356	-81.847774
0.485586	65.265527	-80.219129
0.486191	66.575287	-79.115652
0.486797	67.796961	-77.554788
0.487402	68.884378	-75.348919
0.488008	69.770714	-72.802517
0.488613	70.381247	-70.177760
0.489219	70.729949	-67.758787
0.489824	70.704434	-65.093361
0.490430	70.609058	-62.157625
0.491035	70.367274	-58.770466
0.491641	70.002777	-55.313628
0.492246	69.339392	-51.337857
0.492852	68.665072	-47.847942
0.493457	67.619572	-44.483286
0.494063	66.451358	-40.558758
0.494668	64.984864	-36.578921
0.495273	63.497715	-32.255569
0.495879	61.807055	-27.716944
0.496484	59.923819	-23.213023
0.497090	57.855904	-18.852526
0.497695	55.436250	-14.614036
0.498301	53.109542	-10.060499
0.498906	50.551986	-5.071807
0.499512	48.032702	-0.117820
0.500117	45.271635	4.713349
0.500723	42.322852	9.565394
0.501328	39.260467	14.094258
0.501934	36.023731	18.605500
0.502539	32.757227	23.481404
0.503145	29.299970	28.126039
0.503750	25.772851	32.330638
0.504355	22.199563	36.610339
0.504961	18.498093	40.565504
0.505566	14.792977	44.590348
0.506172	11.060525	48.534940
0.506777	7.386392	52.114597
0.507383	3.582863	55.663889
0.507988	-0.146552	58.907081
0.508594	-3.854097	62.004679
0.509199	-7.615710	64.898391
0.509805	-11.320825	67.638105
0.510410	-14.960330	69.822555
0.511016	-18.663623	72.325577
0.511621	-22.216257	74.108221
0.512227	-25.682626	75.997417
0.512832	-29.036001	77.587562
0.513437	-32.278812	79.148969
0.514043	-35.457837	80.716882
0.514648	-38.563354	81.566315
0.515254	-41.533399	82.766855
0.515859	-44.333953	83.375258
0.516465	-47.062823	84.136305
0.517070	-49.672017	84.140914
0.517676	-52.165786	83.884701
0.518281	-54.512541	83.520852
0.518887	-56.642420	82.751672
0.519492	-58.703045	82.396770
0.520098	-60.604506	81.356736
0.520703	-62.340120	80.173277
0.521309	-63.882552	78.553850
0.521914	-65.378206	77.046398
0.522520	-66.564037	75.200582
0.523125	-67.464953	73.271802
0.523730	-68.233434	71.274698
0.524336	-68.846397	68.582431
0.524941	-69.257064	65.803947
0.525547	-69.513427	62.579192
0.526152	-69.552915	59.516569
0.526758	-69.399826	56.427104
0.527363	-69.208465	52.880795
0.527969	-68.568772	49.267247
0.528574	-67.862862	45.851620
0.529180	-67.073726	41.760893
0.529785	-65.858734	37.899537
0.530391	-64.631594	34.197602
0.530996	-62.962803	30.309134
0.531602	-61.282471	26.356409
0.532207	-59.323905	22.171872
0.532813	-57.206783	18.058371
0.533418	-55.082979	13.613555
0.534023	-52.748374	9.332227
0.534629	-50.318999	4.990980
0.535234	-47.665459	0.751948
0.535840	-44.961496	-3.859610
0.536445	-42.033975	-8.230137
0.537051	-39.051780	-12.282636
0.537656	-35.957198	-16.715523
0.538262	-32.729574	-20.950217
0.538867	-29.380451	-25.108997
0.539473	-25.909830	-29.142788
0.540078	-22.381496	-33.202878
0.540684	-18.765075	-37.145300
0.541289	-15.263471	-40.924505
0.541895	-11.543168	-44.667922
0.542500	-7.960767	-48.510841
0.543105	-4.219810	-52.219825
0.543711	-0.588202	-55.464644
0.544316	3.139998	-58.871053
0.544922	6.746699	-62.105027
0.545527	10.482189	-64.981658
0.546133	14.054263	-67.893536
0.546738	17.662786	-70.596648
0.547344	21.289534	-73.056019
0.547949	24.785671	-75.237487
0.548555	28.266013	-77.330297
0.549160	31.574433	-79.310049
0.549766	34.843367	-81.126041
0.550371	38.052766	-82.614515
0.550977	41.124263	-83.980169
0.551582	44.305109	-84.916091
0.552187	47.184638	-85.418214
0.552793	50.011315	-86.128831
0.553398	52.664855	-86.470177
0.554004	55.187784	-86.038547
0.554609	57.485940	-85.412249
0.555215	59.668063	-84.519436
0.555820	61.790653	-83.195264
0.556426	63.643514	-81.598611
0.557031	65.235760	-80.283657
0.557637	66.665197	-79.024554
0.558242	67.793923	-77.420039
0.558848	68.821806	-75.273275
0.559453	69.730012	-72.716842
0.560059	70.354517	-70.307900
0.560664	70.671022	-67.587165
0.561270	70.695322	-65.060013
0.561875	70.591440	-62.171994
0.562480	70.301665	-58.705125
0.563086	69.904970	-55.188368
0.563691	69.254343	-51.321047
0.564297	68.575770	-47.749795
0.564902	67.589805	-44.223820
0.565508	66.376636	-40.538424
0.566113	64.939910	-36.416517
0.566719	63.351916	-32.050056
0.567324	61.703781	-27.554811
0.567930	59.774983	-23.120569
0.568535	57.638421	-18.915427
0.569141	55.339658	-14.366499
0.569746	52.927293	-9.870441
0.570352	50.454787	-4.943566
0.570957	47.896623	0.012862
0.571562	45.117331	4.958445
0.572168	42.232335	9.713970
0.572773	39.106163	14.277810
0.573379	35.847557	18.879607
0.573984	32.569511	23.577653
0.574590	29.179686	28.174570
0.575195	25.681727	32.506056
0.575801	22.010024	36.795789
0.576406	18.326779	40.691577
0.577012	14.641104	44.558627
0.577617	10.860659	48.572084
0.578223	7.168301	52.299504
0.578828	3.463186	55.670125
0.579434	-0.286884	58.949105
0.580039	-4.009009	62.174674
0.580645	-7.740854	64.982711
0.581250	-11.500643	67.640816
0.581855	-15.107344	70.053824
0.582461	-18.797880	72.355943
0.583066	-22.325606	74.088158
0.583672	-25.778610	76.034561
0.584277	-29.152641	77.631485
0.584883	-32.427041	79.257690
0.585488	-35.607280	80.586742
0.586094	-38.659338	81.664191
0.586699	-41.645178	83.008427
0.587305	-44.460313	83.465814
0.587910	-47.129040	84.185378
0.588516	-49.681129	84.242857
0.589121	-52.286070	83.886870
0.589727	-54.558103	83.524106
0.590332	-56.765134	82.958811
0.590938	-58.763187	82.394601
0.591543	-60.656750	81.268892
0.592148	-62.359560	80.122035
0.592754	-63.921431	78.508301
0.593359	-65.431665	77.144274
0.593965	-66.445575	75.036009
0.594570	-67.488645	73.278851
0.595176	-68.316054	71.273343
0.595781	-68.797798	68.516006
0.596387	-69.252204	65.706071
0.596992	-69.426556	62.548012
0.597598	-69.589972	59.541241
0.598203	-69.427163	56.259820
0.598809	-69.031684	52.959963
0.599414	-68.532930	49.291377
0.600020	-67.970389	45.588629
0.600625	-66.950404	41.605267
0.601230	-65.847192	37.770481
0.601836	-64.473645	34.274059
0.602441	-62.927569	30.138867
0.603047	-61.157327	26.172857
0.603652	-59.326943	22.164010
0.604258	-57.237158	17.888647
0.604863	-55.069614	13.507816
0.605469	-52.770244	9.282340
0.606074	-50.231520	4.967121
0.606680	-47.678824	0.548333
0.607285	-44.909252	-3.862863
0.607891	-41.986591	-8.289243
0.608496	-39.066360	-12.444226
0.609102	-35.862429	-16.828310
0.609707	-32.595318	-21.057582
0.610313	-29.234045	-25.103303
0.610918	-25.840575	-29.282146
0.611523	-22.398505	-33.512773
0.612129	-18.803954	-37.227993
0.612734	-15.190571	-41.007469
0.613340	-11.518868	-44.820565
0.613945	-7.813753	-48.520331
0.614551	-4.240465	-52.252089
0.615156	-0.556004	-55.645755
0.615762	3.102334	-58.954288
0.616367	6.836609	-62.061376
0.616973	10.501022	-65.076823
0.617578	14.110152	-68.012831
0.618184	17.724143	-70.790502
0.618789	21.235467	-73.031346
0.619395	24.734641	-75.323704
0.620000	28.231993	-77.562651
0.620605	31.561676	-79.307066
0.621211	34.823927	-81.123059
0.621816	37.995054	-82.715102
0.622422	41.120010	-83.959021
0.623027	44.211555	-84.862137
0.623633	47.188283	-85.536424
0.624238	49.921405	-86.104972
0.624844	52.615648	-86.378808
0.625449	55.120960	-86.029328
0.626055	57.437340	-85.404386
0.626660	59.627969	-84.646864
0.627266	61.705603	-83.076782
0.627871	63.497108	-81.639822
0.628477	65.174403	-80.402681
0.629082	66.539445	-79.087727
0.629687	67.668779	-77.358765
0.630293	68.759841	-75.234775
0.630898	69.607905	-72.684578
0.631504	70.197783	-70.151461
0.632109	70.516718	-67.624038
0.632715	70.631535	-65.007144
0.633320	70.428631	-62.013115
0.633926	70.160118	-58.604266
0.634531	69.805949	-55.074767
0.635137	69.199061	-51.296104
0.635742	68.389269	-47.641345
0.636348	67.365639	-44.087444
0.636953	66.180415	-40.490706
0.637559	64.799578	-36.287191
0.638164	63.166023	-31.829090
0.638770	61.590179	-27.403253
0.639375	59.629184	-23.017271
0.639980	57.500519	-18.635356
0.640586	55.179887	-14.285704
0.641191	52.779672	-9.781783
0.641797	50.289548	-4.716363
0.642402	47.775124	0.150323
0.643008	44.964242	5.101057
0.643613	42.031254	9.620703
0.644219	39.029011	14.333390
0.644824	35.727273	19.184080
0.645430	32.415207	23.667667
0.646035	29.035710	28.360290
0.646641	25.474571	32.680931
0.647246	21.848430	36.860587
0.647852	18.242944	40.830393
0.648457	14.516567	44.876114
0.649062	10.843649	48.755635
0.649668	7.174376	52.376232
0.650273	3.403651	55.855303
0.650879	-0.353708	59.061622
0.651484	-4.055786	62.313218
0.652090	-7.860530	64.935806
0.652695	-11.509148	67.676875
0.653301	-15.155336	70.286992
0.653906	-18.892041	72.492861
0.654512	-22.391216	74.165971
0.655117	-25.822350	76.212419
0.655723	-29.087031	77.813138
0.656328	-32.444659	79.306221
0.656934	-35.661955	80.786832
0.657539	-38.666628	81.756102
0.658145	-41.606299	82.982941
0.658750	-44.427508	83.496993
0.659355	-47.129040	84.128713
0.659961	-49.736411	84.269698
0.660566	-52.174291	83.895817
0.661172	-54.498568	83.434635
0.661777	-56.700132	83.078648
0.662383	-58.734027	82.394601
0.662988	-60.562589	81.255064
0.663594	-62.411805	80.131795
0.664199	-63.965171	78.521587
0.664805	-65.301661	77.082457
0.665410	-66.527587	75.104875
0.666016	-67.449765	73.351512
0.666621	-68.242547	71.179262
0.667227	-68.760741	68.415690
0.667832	-69.228512	65.479682
0.668438	-69.456323	62.556146
0.669043	-69.504315	59.459090
0.669648	-69.377348	55.979749
0.670254	-68.987944	52.935291
0.670859	-68.531715	49.281617
0.671465	-67.827627	45.537115
0.672070	-66.929142	41.524201
0.672676	-65.735413	37.819013
0.673281	-64.449345	34.122229
0.673887	-62.811537	30.165709
0.674492	-61.128774	26.146829
0.675098	-59.250398	21.995913
0.675703	-57.203746	17.776130
0.676309	-54.941433	13.283596
0.676914	-52.656642	9.262277
0.677520	-50.207220	4.806345
0.678125	-47.633262	0.279107
0.678730	-44.852147	-3.952334
0.679336	-42.066780	-8.439174
0.679941	-38.939393	-12.570842
0.680547	-35.788922	-16.885518
0.681152	-32.560083	-21.112078
0.681758	-29.211568	-25.312069
0.682363	-25.861837	-29.393307
0.682969	-22.402150	-33.500302
0.683574	-18.782085	-37.299570
0.684180	-15.184496	-41.183971
0.684785	-11.524336	-45.080302
0.685391	-7.949225	-48.640439
0.685996	-4.231352	-52.358370
0.686602	-0.624651	-55.942637
0.687207	3.146073	-59.002277
0.687813	6.831141	-62.110720
0.688418	10.422047	-65.241395
0.689023	14.045150	-68.071936
0.689629	17.680404	-70.725974
0.690234	21.259767	-73.164197
0.690840	24.695154	-75.408566
0.691445	28.154234	-77.518186
0.692051	31.483917	-79.411178
0.692656	34.754065	-81.194364
0.693262	38.018138	-82.902178
0.693867	41.099356	-83.926758
0.694473	44.153236	-84.918260
0.695078	47.119029	-85.751426
0.695684	49.892853	-86.148081
0.696289	52.560366	-86.391009
0.696895	55.021938	-86.116088
0.697500	57.380235	-85.422009
0.698105	59.672316	-84.474158
0.698711	61.680089	-83.166253
0.699316	63.492855	-81.679677
0.699922	65.082671	-80.280675
0.700527	66.494491	-78.984428
0.701133	67.615320	-77.291797
0.701738	68.711849	-75.413447
0.702344	69.593325	-72.547118
0.702949	70.180773	-69.987431
0.703555	70.502746	-67.644372
0.704160	70.593870	-64.871039
0.704766	70.420127	-61.913342
0.705371	70.152829	-58.443761
0.705977	69.790154	-55.024067
0.706582	69.166863	-51.043145
0.707187	68.447589	-47.513374
0.707793	67.432464	-44.012343
0.708398	66.161583	-40.309866
0.709004	64.723034	-36.130481
0.709609	63.189107	-31.646081
0.710215	61.572562	-27.412471
0.710820	59.610351	-22.877641
0.711426	57.457995	-18.357453
0.712031	55.174419	-14.205994
0.712637	52.757802	-9.674960
0.713242	50.305950	-4.545555
0.713848	47.791526	0.346346
0.714453	45.003122	5.164500
0.715059	42.134528	9.978045
0.715664	39.018683	14.584994
0.716270	35.778910	19.216072
0.716875	32.459554	23.796993
0.717480	29.056972	28.443254
0.718086	25.548078	32.878581
0.718691	21.911002	36.873059
0.719297	18.335284	40.910375
0.719902	14.555447	45.151034
0.720508	10.834537	48.924003
0.721113	7.118487	52.469770
0.721719	3.379352	56.038041
0.722324	-0.332446	59.290722
0.722930	-4.107423	62.353074
0.723535	-7.819221	65.149995
0.724141	-11.492746	67.907331
0.724746	-15.214871	70.294312
0.725352	-18.909659	72.479847
0.725957	-22.410048	74.160548
0.726562	-25.960859	76.294569
0.727168	-29.274747	77.636907
0.727773	-32.471996	79.198042
0.728379	-35.717845	80.931884
0.728984	-38.783267	81.778877
0.729590	-41.747238	82.968571
0.730195	-44.481575	83.461205
0.730801	-47.169743	84.224149
0.731406	-49.766178	84.203544
0.732012	-52.268452	83.880092
0.732617	-54.610348	83.550405
0.733223	-56.805229	82.913262
0.733828	-58.838516	82.316788
0.734434	-60.658573	81.050094
0.735039	-62.429422	80.149147
0.735645	-63.978536	78.412594
0.736250	-65.459610	76.765242
0.736855	-66.586514	75.125480
0.737461	-67.556077	73.252010
0.738066	-68.362223	71.094672
0.738672	-68.944812	68.305613
0.739277	-69.403471	65.488358
0.739883	-69.668339	62.340602
0.740488	-69.741238	59.298042
0.741094	-69.485483	56.036414
0.741699	-69.259494	52.754722
0.742305	-68.636204	48.982024
0.742910	-68.060298	45.223695
0.743516	-67.139335	41.449642
0.744121	-65.988131	37.519691
0.744727	-64.654071	33.762989
0.745332	-63.005936	29.959112
0.745938	-61.300696	26.070101
0.746543	-59.405310	21.734820
0.747148	-57.339217	17.611286
0.747754	-55.116391	13.246994
0.748359	-52.790898	9.017180
0.748965	-50.277082	4.706842
0.749570	-47.655131	0.222984
0.750176	-45.005843	-4.128565
0.750781	-42.061920	-8.636553
0.751387	-39.133184	-13.032567
0.751992	-35.924393	-17.032738
0.752598	-32.713779	-21.313795
0.753203	-29.319094	-25.651517
0.753809	-25.908615	-29.542154
0.754414	-22.340186	-33.584350
0.755020	-18.802740	-37.489086
0.755625	-15.247676	-41.299199
0.756230	-11.544991	-45.083556
0.756836	-7.947402	-48.758378
0.757441	-4.258689	-52.506404
0.758047	-0.586379	-55.839609
0.758652	3.068314	-59.166850
0.759258	6.767962	-62.205614
0.759863	10.463357	-65.423591
0.760469	14.070665	-68.125618
0.761074	17.659749	-70.680967
0.761680	21.248225	-73.389231
0.762285	24.766231	-75.450591
0.762891	28.241106	-77.498394
0.763496	31.537984	-79.472452
0.764102	34.904116	-81.264314
0.764707	38.036971	-82.819485
0.765312	41.195947	-83.945465
0.765918	44.260155	-84.951066
0.766523	47.184031	-85.674426
0.767129	50.017390	-86.114190
0.767734	52.667893	-86.340037
0.768340	55.113062	-86.241348
0.768945	57.535754	-85.370225
0.769551	59.662596	-84.343205
0.770156	61.738408	-83.168422
0.770762	63.569400	-81.588851
0.771367	65.241227	-80.067571
0.771973	66.548558	-78.901735
0.772578	67.772054	-77.165182
0.773184	68.742831	-75.109245
0.773789	69.651037	-72.473372
0.774395	70.213578	-69.935646
0.775000	70.566533	-67.463261
0.775605	70.689247	-64.771537
0.776211	70.446856	-61.662551
0.776816	70.205073	-58.492292
0.777422	69.851511	-54.921039
0.778027	69.182051	-50.776629
0.778633	68.465206	-47.401129
0.779238	67.404519	-43.954051
0.779844	66.178593	-40.137160
0.780449	64.771026	-35.960215
0.781055	63.203687	-31.600261
0.781660	61.553122	-27.128332
0.782266	59.597594	-22.699242
0.782871	57.427013	-18.327087
0.783477	55.158624	-14.044403
0.784082	52.773597	-9.553496
0.784687	50.230621	-4.376915
0.785293	47.683392	0.329807
0.785898	44.939335	5.274034
0.786504	41.986299	10.248628
0.787109	38.876530	14.724352
0.787715	35.685963	19.346483
0.788320	32.378758	24.001150
0.788926	28.892948	28.580443
0.789531	25.362184	32.923859
0.790137	21.765811	37.121951
0.790742	18.152428	41.099620
0.791348	14.351936	45.121210
0.791953	10.635278	48.899602
0.792559	6.984230	52.523453
0.793164	3.161261	56.161944
0.793770	-0.562079	59.180645
0.794375	-4.245325	62.324877
0.794980	-8.013012	65.327039
0.795586	-11.770979	67.960743
0.796191	-15.367352	70.321967
0.796797	-19.121067	72.549526
0.797402	-22.674308	74.280927
0.798008	-26.089041	76.260950
0.798613	-29.479473	77.814765
0.799219	-32.687049	79.322488
0.799824	-35.956590	80.853258
0.800430	-38.948506	81.679645
0.801035	-41.976871	82.829756
0.801641	-44.702703	83.518141
0.802246	-47.391478	83.992609
0.802852	-49.942352	84.124375
0.803457	-52.531498	83.967123
0.804063	-54.874001	83.484522
0.804668	-57.028787	82.889132
0.805273	-59.001325	82.296996
0.805879	-60.893674	81.121671
0.806484	-62.595269	80.004638
0.807090	-64.159570	78.377348
0.807695	-65.654008	76.874776
0.808301	-66.730491	75.024893
0.808906	-67.737718	73.041617
0.809512	-68.498302	70.948807
0.810117	-69.139210	68.306698
0.810723	-69.475763	65.261698
0.811328	-69.706611	62.118551
0.811934	-69.842690	59.224839
0.812539	-69.633104	55.902478
0.813145	-69.348796	52.529689
0.813750	-68.800835	48.859205
0.814355	-68.103430	45.260568
0.814961	-67.172747	41.242774
0.815566	-66.040983	37.398498
0.816172	-64.763420	33.726659
0.816777	-63.119537	29.844155
0.817383	-61.329248	25.743396
0.817988	-59.374327	21.538254
0.818594	-57.390855	17.508801
0.819199	-55.128541	12.969092
0.819805	-52.799403	8.757985
0.820410	-50.307457	4.570737
0.821016	-47.695226	0.185027
0.821621	-44.944486	-4.285275
0.822227	-42.034583	-8.757204
0.822832	-39.096127	-12.963159
0.823438	-35.897663	-17.236895
0.824043	-32.626300	-21.448544
0.824648	-29.257130	-25.591056
0.825254	-25.855762	-29.673107
0.825859	-22.309811	-33.813179
0.826465	-18.751102	-37.692972
0.827070	-15.149261	-41.362643
0.827676	-11.509756	-45.272259
0.828281	-7.842913	-49.026520
0.828887	-4.192472	-52.496644
0.829492	-0.528059	-55.936130
0.830098	3.215328	-59.191251
0.830703	6.953248	-62.243300
0.831309	10.511956	-65.338729
0.831914	14.162397	-68.164389
0.832520	17.778818	-70.877262
0.833125	21.361219	-73.277256
0.833730	24.850066	-75.447337
0.834336	28.287883	-77.604404
0.834941	31.680745	-79.566532
0.835547	34.937529	-81.197076
0.836152	38.147535	-82.780985
0.836758	41.253052	-84.133354
0.837363	44.339129	-84.969503
0.837969	47.300670	-85.591191
0.838574	50.120664	-86.095483
0.839180	52.703735	-86.389382
0.839785	55.210261	-86.071624
0.840391	57.493837	-85.378087
0.840996	59.835125	-84.390381
0.841602	61.803410	-83.103081
0.842207	63.662954	-81.440003
0.842812	65.258845	-80.082211
0.843418	66.621457	-78.956502
0.844023	67.728921	-77.060799
0.844629	68.843068	-74.956602
0.845234	69.692954	-72.483132
0.845840	70.293767	-69.903924
0.846445	70.570785	-67.361861
0.847051	70.660087	-64.653597
0.847656	70.468726	-61.664449
0.848262	70.147361	-58.277019
0.848867	69.788939	-54.761347
0.849473	69.148638	-50.832210
0.850078	68.374082	-47.331450
0.850684	67.298207	-43.783785
0.851289	66.077749	-40.068565
0.851895	64.694481	-36.087372
0.852500	63.183033	-31.431079
0.853105	61.391528	-26.958066
0.853711	59.478525	-22.624953
0.854316	57.366263	-18.258221
0.854922	55.102127	-13.864648
0.855527	52.598638	-9.392448
0.856133	50.118841	-4.335162
0.856738	47.584370	0.617741
0.857344	44.846388	5.494459
0.857949	41.911577	10.294719
0.858555	38.766573	14.785626
0.859160	35.582081	19.497500
0.859766	32.186789	24.157317
0.860371	28.801824	28.591560
0.860977	25.317230	33.046407
0.861582	21.530103	37.348883
0.862187	17.943449	41.119954
0.862793	14.241979	45.176791
0.863398	10.534434	49.069597
0.864004	6.805019	52.665522
0.864609	3.034294	56.121818
0.865215	-0.664746	59.422488
0.865820	-4.449443	62.481858
0.866426	-8.143016	65.339782
0.867031	-11.860281	67.917634
0.867637	-15.507684	70.336336
0.868242	-19.211584	72.678310
0.868848	-22.733235	74.171393
0.869453	-26.186240	76.331171
0.870059	-29.609477	77.976084
0.870664	-32.869906	79.362886
0.871270	-36.057435	80.822349
0.871875	-39.046312	81.789722
0.872480	-42.035798	82.982399
0.873086	-44.790183	83.470965
0.873691	-47.536062	84.177245
0.874297	-50.157405	84.192428
0.874902	-52.561873	83.869789
0.875508	-54.994285	83.402642
0.876113	-57.115659	82.876389
0.876719	-59.179929	82.293742
0.877324	-60.985405	80.889588
0.877930	-62.776302	79.938755
0.878535	-64.335136	78.416119
0.879141	-65.745740	76.836547
0.879746	-66.808250	74.920510
0.880352	-67.757765	73.092860
0.880957	-68.626484	70.953416
0.881563	-69.140425	68.174389
0.882168	-69.546840	65.316465
0.882773	-69.785585	62.160846
0.883379	-69.846943	59.157329
0.883984	-69.681096	55.756071
0.884590	-69.359124	52.447267
0.885195	-68.810555	48.918852
0.885801	-68.159927	44.985106
0.886406	-67.157560	41.082539
0.887012	-66.047666	37.451910
0.887617	-64.710568	33.696293
0.888223	-63.087340	29.746821
0.888828	-61.320743	25.742312
0.889434	-59.416852	21.548286
0.890039	-57.387210	17.316303
0.890645	-55.202656	12.925441
0.891250	-52.867443	8.718672
0.891855	-50.380964	4.412672
0.892461	-47.731068	-0.075524
0.893066	-45.007666	-4.451203
0.893672	-42.092902	-8.787298
0.894277	-39.046312	-13.162978
0.894883	-35.881868	-17.524016
0.895488	-32.669432	-21.515783
0.896094	-29.292972	-25.725534
0.896699	-25.878240	-29.782371
0.897305	-22.332288	-33.832429
0.897910	-18.728018	-37.715204
0.898516	-15.195431	-41.497663
0.899121	-11.489101	-45.271174
0.899727	-7.925532	-49.044957
0.900332	-4.187005	-52.612685
0.900937	-0.517125	-56.166857
0.901543	3.210468	-59.404084
0.902148	6.773429	-62.315690
0.902754	10.467609	-65.560238
0.903359	14.241371	-68.327064
0.903965	17.779425	-70.874008
0.904570	21.373369	-73.275901
0.905176	24.866468	-75.535181
0.905781	28.324332	-77.633143
0.906387	31.654015	-79.510952
0.906992	34.956361	-81.300916
0.907598	38.150572	-82.840904
0.908203	41.287679	-83.984507
0.908809	44.355532	-84.902264
0.909414	47.215013	-85.687169
0.910020	50.132814	-86.172753
0.910625	52.703127	-86.213693
0.911230	55.172597	-86.160553
0.911836	57.563092	-85.480844
0.912441	59.768300	-84.352694
0.913047	61.827710	-82.996800
0.913652	63.586410	-81.466302
0.914258	65.258237	-80.036120
0.914863	66.585615	-78.742043
0.915469	67.706444	-77.081947
0.916074	68.764094	-74.946841
0.916680	69.640710	-72.331574
0.917285	70.231195	-69.732031
0.917891	70.556813	-67.332037
0.918496	70.643077	-64.657122
0.919102	70.420127	-61.495268
0.919707	70.098761	-58.173992
0.920312	69.752489	-54.708207
0.920918	69.115834	-50.589825
0.921523	68.344922	-47.084726
0.922129	67.275122	-43.655001
0.922734	66.053449	-39.926496
0.923340	64.676864	-35.770970
0.923945	63.148405	-31.297957
0.924551	61.380593	-26.842296
0.925156	59.471235	-22.506201
0.925762	57.287896	-18.033730
0.926367	54.997638	-13.832926
0.926973	52.629013	-9.383230
0.927578	50.110944	-4.072713
0.928184	47.420954	0.714533
0.928789	44.738254	5.519944
0.929395	41.833210	10.378496
0.930000	38.666944	14.936100
0.930605	35.514649	19.636587
0.931211	32.184359	24.231606
0.931816	28.728317	28.897117
0.932422	25.180543	33.191188
0.933027	21.550757	37.383316
0.933633	17.905177	41.275580
0.934238	14.164827	45.322927
0.934844	10.396532	49.179132
0.935449	6.757634	52.637867
0.936055	2.902468	56.363661
0.936660	-0.860967	59.547206
0.937266	-4.486500	62.537438
0.937871	-8.294890	65.427897
0.938477	-11.924068	68.136160
0.939082	-15.629183	70.472712
0.939688	-19.296633	72.743109
0.940293	-22.855950	74.379346
0.940898	-26.352086	76.381329
0.941504	-29.700602	77.905320
0.942109	-32.931263	79.331436
0.942715	-36.128512	80.922937
0.943320	-39.182999	81.712723
0.943926	-42.129960	82.750587
0.944531	-44.878269	83.539289
0.945137	-47.656954	84.198664
0.945742	-50.195070	84.093738
0.946348	-52.727111	83.814751
0.946953	-55.098166	83.374987
0.947559	-57.231083	82.806168
0.948164	-59.242501	82.096364
0.948770	-61.032790	81.067717
0.949375	-62.819434	79.920860
0.949980	-64.349108	78.227416
0.950586	-65.804667	76.697461
0.951191	-66.924889	74.791997
0.951797	-67.944874	72.907410
0.952402	-68.625877	70.639725
0.953008	-69.224260	68.160833
0.953613	-69.644039	65.396447
0.954219	-69.856662	62.027724
0.954824	-69.917412	59.025833
0.955430	-69.782548	55.718385
0.956035	-69.439921	52.375690
0.956641	-68.922334	48.663724
0.957246	-68.200630	45.016014
0.957852	-67.276629	41.051088
0.958457	-66.135145	37.177261
0.959063	-64.780430	33.401309
0.959668	-63.145660	29.612072
0.960273	-61.427055	25.549542
0.960879	-59.468489	21.201789
0.961484	-57.353190	17.187790
0.962090	-55.191113	12.863895
0.962695	-52.894780	8.552744
0.963301	-50.382179	4.170558
0.963906	-47.700086	-0.109415
0.964512	-44.976684	-4.550977
0.965117	-42.066780	-9.012061
0.965723	-39.088837	-13.248382
0.966328	-35.884906	-17.548959
0.966934	-32.604430	-21.683338
0.967539	-29.274747	-25.945687
0.968145	-25.857585	-29.869944
0.968750	-22.301914	-33.858728
0.969355	-18.689138	-37.978195
0.969961	-15.079400	-41.608553
0.970566	-11.469661	-45.257076
0.971172	-7.870858	-49.037908
0.971777	-4.131115	-52.741198
0.972383	-0.401093	-56.090399
0.972988	3.177056	-59.407608
0.973594	6.917406	-62.514425
0.974199	10.581818	-65.495981
0.974805	14.271139	-68.291004
0.975410	17.811015	-71.019602
0.976016	21.380659	-73.516388
0.976621	24.902310	-75.618146
0.977227	28.397839	-77.634770
0.977832	31.775514	-79.713211
0.978437	34.961828	-81.440817
0.979043	38.195527	-82.852833
0.979648	41.308334	-84.082925
0.980254	44.382869	-84.937510
0.980859	47.331045	-85.612610
0.981465	50.201461	-86.064846
0.982070	52.864114	-86.323499
0.982676	55.332368	-85.953142
0.983281	57.670011	-85.246592
0.983887	59.886762	-84.277864
0.984492	61.913974	-83.016321
0.985098	63.791743	-81.382254
0.985703	65.315342	-79.860703
0.986309	66.668234	-78.860795
0.986914	67.821261	-76.952078
0.987520	68.867976	-74.856828
0.988125	69.649822	-72.243187
0.988730	70.249420	-69.701937
0.989336	70.561673	-67.133303
0.989941	70.616955	-64.441849
0.990547	70.476624	-61.445381
0.991152	70.167408	-58.039243
0.991758	69.783471	-54.459585
0.992363	69.133451	-50.496558
0.992969	68.400204	-47.187482
0.993574	67.336479	-43.554956
0.994180	66.117236	-39.678688
0.994785	64.706631	-35.715389
0.995391	63.074898	-31.286298
0.995996	61.403071	-26.759603
0.996602	59.452403	-22.282252
0.997207	57.265419	-17.967576
0.997812	54.925346	-13.650460
0.998418	52.576768	-9.034022
0.999023	50.058092	-3.965077
0.999629	47.423991	0.824609
1.000234	44.670822	5.757721
1.000840	41.721431	10.529242
1.001445	38.586147	14.936100
1.002051	35.356701	19.678611
1.002656	32.013653	24.489174
1.003262	28.584341	28.875427
1.003867	25.171431	33.223451
1.004473	21.451128	37.504779
1.005078	17.702881	41.358815
1.005684	14.051833	45.469334
1.006289	10.371018	49.257758
1.006895	6.580853	52.915770
1.007500	2.800408	56.369626
1.008105	-0.903492	59.650233
1.008711	-4.632907	62.659444
1.009316	-8.457698	65.513844
1.009922	-12.143981	68.063228
1.010527	-15.839984	70.386765
1.011133	-19.558464	72.863488
1.011738	-22.987776	74.394800
1.012344	-26.483913	76.308126
1.012949	-29.789903	77.937313
1.013555	-33.108044	79.402741
1.014160	-36.378800	80.836177
1.014766	-39.300246	81.803007
1.015371	-42.308563	82.957726
1.015977	-45.098790	83.467712
1.016582	-47.781490	84.068795
1.017187	-50.356056	84.096721
1.017793	-52.928192	83.787368
1.018398	-55.250648	83.201196
1.019004	-57.414547	82.643222
1.019609	-59.518304	82.201831
1.020215	-61.271536	80.947609
1.020820	-62.994393	79.820273
1.021426	-64.497945	78.170751
1.022031	-66.016683	76.648658
1.022637	-67.063398	74.730181
1.023242	-68.067588	72.813059
1.023848	-68.865837	70.694221
1.024453	-69.328141	68.011172
1.025059	-69.787408	65.114206
1.025664	-69.983022	61.871556
1.026270	-70.086903	58.925788
1.026875	-69.839045	55.505010
1.027480	-69.611842	52.061999
1.028086	-68.994019	48.674840
1.028691	-68.333064	44.859575
1.029297	-67.407848	40.861030
1.029902	-66.237204	37.069353
1.030508	-64.852722	33.404292
1.031113	-63.259869	29.462412
1.031719	-61.487804	25.434856
1.032324	-59.496434	21.257369
1.032930	-57.548803	17.017795
1.033535	-55.298032	12.594940
1.034141	-52.917258	8.320932
1.034746	-50.485453	4.168389
1.035352	-47.808220	-0.372677
1.035957	-45.021638	-4.822102
1.036563	-42.136642	-9.009620
1.037168	-39.125894	-13.242959
1.037773	-35.918318	-17.624332
1.038379	-32.626300	-21.755999
1.038984	-29.305729	-25.954634
1.039590	-25.904970	-29.989510
1.040195	-22.347476	-34.062072
1.040801	-18.772365	-37.913667
1.041406	-15.134682	-41.656270
1.042012	-11.481811	-45.511662
1.042617	-7.751181	-49.193804
1.043223	-4.108031	-52.742282
1.043828	-0.503152	-56.213219
1.044434	3.296732	-59.592786
1.045039	6.950210	-62.487583
1.045645	10.617053	-65.487034
1.046250	14.229829	-68.388609
1.046855	17.894242	-70.967546
1.047461	21.452951	-73.382995
1.048066	24.938152	-75.601607
1.048672	28.373540	-77.715023
1.049277	31.735420	-79.607472
1.049883	35.054775	-81.348905
1.050488	38.203424	-82.881030
1.051094	41.422543	-84.144199
1.051699	44.464881	-84.911482
1.052305	47.377822	-85.644603
1.052910	50.236696	-86.201493
1.053516	52.814299	-86.242704
1.054121	55.319611	-85.891055
1.054727	57.624449	-85.241983
1.055332	59.918959	-84.222012
1.055937	61.954677	-82.812978
1.056543	63.783238	-81.293867
1.057148	65.344502	-79.887002
1.057754	66.705291	-78.581266
1.058359	67.885048	-76.815974
1.058965	68.872228	-74.751632
1.059570	69.778004	-72.214719
1.060176	70.317460	-69.505100
1.060781	70.555598	-67.017532
1.061387	70.678312	-64.528067
1.061992	70.536158	-61.360790
1.062598	70.141286	-57.895005
1.063203	69.807771	-54.379061
1.063809	69.157143	-50.422541
1.064414	68.402634	-46.886534
1.065020	67.306712	-43.337785
1.065625	66.031579	-39.715832
1.066230	64.658639	-35.455652
1.066836	63.093731	-31.007040
1.067441	61.362976	-26.562224
1.068047	59.494927	-22.265713
1.068652	57.247801	-17.774806
1.069258	54.947216	-13.427324
1.069863	52.522701	-9.119697
1.070469	50.048980	-3.873708
1.071074	47.370532	1.002738
1.071680	44.608250	5.926631
1.072285	41.633344	10.578857
1.072891	38.525397	15.214274
1.073496	35.292913	19.901746
1.074102	31.991175	24.465315
1.074707	28.467701	29.137062
1.075312	24.957592	33.406461
1.075918	21.310189	37.650644
1.076523	17.628766	41.365593
1.077129	13.884164	45.587002
1.077734	10.164469	49.402538
1.078340	6.451456	52.803253
1.078945	2.688629	56.422766
1.079551	-1.068123	59.679243
1.080156	-4.803005	62.760574
1.080762	-8.540318	65.543667
1.081367	-12.261835	68.213160
1.081973	-15.943258	70.552422
1.082578	-19.575474	72.825531
1.083184	-23.130538	74.427335
1.083789	-26.678311	76.436639
1.084395	-30.035939	77.880377
1.085000	-33.240478	79.257147
1.085605	-36.489971	80.851631
1.086211	-39.528056	81.838524
1.086816	-42.461652	82.840601
1.087422	-45.194775	83.365498
1.088027	-47.922429	84.140643
1.088633	-50.538305	84.128171
1.089238	-52.967680	83.749410
1.089844	-55.387334	83.319407
1.090449	-57.594973	82.699887
1.091055	-59.523164	82.061389
1.091660	-61.431915	80.848920
1.092266	-63.148089	79.781502
1.092871	-64.661361	78.101343
1.093477	-66.050096	76.424980
1.094082	-67.234712	74.699544
1.094688	-68.201845	72.782422
1.095293	-68.918689	70.547542
1.095898	-69.463005	67.902451
1.096504	-69.927132	65.018228
1.097109	-70.142185	61.819772
1.097715	-70.082043	58.773687
1.098320	-69.967227	55.490911
1.098926	-69.640394	52.117308
1.099531	-69.075423	48.420525
1.100137	-68.313624	44.727537
1.100742	-67.435185	40.834731
1.101348	-66.274261	36.909661
1.101953	-64.918331	33.055083
1.102559	-63.310291	29.311666
1.103164	-61.476869	25.427807
1.103770	-59.606391	21.050230
1.104375	-57.457072	16.885215
1.104980	-55.223918	12.495166
1.105586	-52.900855	8.268334
1.106191	-50.359701	3.955827
1.106797	-47.746256	-0.410634
1.107402	-45.002806	-4.787940
1.108008	-42.105052	-9.283727
1.108613	-39.040845	-13.487514
1.109219	-35.841774	-17.728173
1.109824	-32.581345	-21.911896
1.110430	-29.169650	-26.240128
1.111035	-25.748236	-30.063527
1.111641	-22.194387	-34.077526
1.112246	-18.670913	-38.080951
1.112852	-14.990098	-41.840364
1.113457	-11.373069	-45.569953
1.114062	-7.754826	-49.226068
1.114668	-3.996859	-52.894925
1.115273	-0.282024	-56.288592
1.115879	3.368417	-59.522294
1.116484	7.081429	-62.592509
1.117090	10.752525	-65.687666
1.117695	14.438807	-68.399183
1.118301	18.029106	-71.106362
1.118906	21.576272	-73.701566
1.119512	25.083951	-75.632515
1.120117	28.557611	-77.642633
1.120723	31.860564	-79.607743
1.121328	35.218192	-81.416415
1.121934	38.334036	-82.898382
1.122539	41.467498	-84.099735
1.123145	44.575445	-84.991735
1.123750	47.484741	-85.645958
1.124355	50.293193	-86.043427
1.124961	52.951593	-86.250024
1.125566	55.454475	-86.021466
1.126172	57.728938	-85.165526
1.126777	59.949941	-84.187851
1.127383	62.002061	-82.965350
1.127988	63.799033	-81.222019
1.128594	65.379736	-79.743848
1.129199	66.685244	-78.616241
1.129805	67.900843	-76.839562
1.130410	68.886808	-74.694424
1.131016	69.771321	-72.031981
1.131621	70.291945	-69.550920
1.132227	70.530691	-66.988522
1.132832	70.642470	-64.313878
1.133438	70.434099	-61.233090
1.134043	70.191708	-57.944078
1.134648	69.718469	-54.304502
1.135254	69.114011	-50.291045
1.135859	68.456094	-46.952960
1.136465	67.218018	-43.288169
1.137070	65.928912	-39.479140
1.137676	64.528635	-35.361843
1.138281	62.961297	-30.952815
1.138887	61.280964	-26.452690
1.139492	59.278051	-22.096261
1.140098	57.003588	-17.758539
1.140703	54.674450	-13.443591
1.141309	52.324050	-8.796245
1.141914	49.789579	-3.713745
1.142520	47.270295	0.993249
1.143125	44.399879	6.045655
1.143730	41.395206	10.753191
1.144336	38.345578	15.170081
1.144941	35.095477	19.933197
1.145547	31.731167	24.688722
1.146152	28.250825	29.184780
1.146758	24.788101	33.556664
1.147363	21.142520	37.744725
1.147969	17.433153	41.613130
1.148574	13.616866	45.588629
1.149180	9.892311	49.404707
1.149785	6.203598	53.093086
1.150391	2.457781	56.568360
1.150996	-1.296541	59.632610
1.151602	-5.047219	62.789042
1.152207	-8.842851	65.643712
1.152813	-12.483571	68.054823
1.153418	-16.115179	70.588211
1.154023	-19.857352	72.912019
1.154629	-23.351058	74.497556
1.155234	-26.893972	76.467005
1.155840	-30.237020	77.930535
1.156445	-33.501701	79.444223
1.157051	-36.620583	80.917514
1.157656	-39.666565	81.764236
1.158262	-42.658481	82.902417
1.158867	-45.312021	83.490215
1.159473	-48.099211	84.026771
1.160078	-50.667094	84.121664
1.160684	-53.205818	83.808515
1.161289	-55.485749	83.141007
1.161895	-57.573711	82.657863
1.162500	-59.663495	82.080639
1.163105	-61.455607	80.890402
1.163711	-63.170567	79.734869
1.164316	-64.706315	78.085618
1.164922	-66.106593	76.560814
1.165527	-67.185505	74.586214
1.166133	-68.170255	72.637913
1.166738	-68.883455	70.587398
1.167344	-69.391928	67.804033
1.167949	-69.810493	64.835490
1.168555	-70.009144	61.814078
1.169160	-70.066856	58.731121
1.169766	-69.890682	55.210026
1.170371	-69.460575	52.064439
1.170977	-68.932054	48.390159
1.171582	-68.258949	44.688767
1.172187	-67.291816	40.722486
1.172793	-66.069535	36.862756
1.173398	-64.755523	33.186850
1.174004	-63.150519	29.216502
1.174609	-61.365698	25.224193
1.175215	-59.447834	21.062702
1.175820	-57.355620	16.797370
1.176426	-55.133401	12.306734
1.177031	-52.744729	8.256947
1.177637	-50.291662	3.904855
1.178242	-47.618682	-0.704262
1.178848	-44.855185	-4.866566
1.179453	-41.917336	-9.321143
1.180059	-38.934533	-13.549059
1.180664	-35.635833	-17.786465
1.181270	-32.429471	-22.002451
1.181875	-29.105256	-26.188072
1.182480	-25.675336	-30.290729
1.183086	-22.116628	-34.318013
1.183691	-18.517824	-38.160390
1.184297	-14.956078	-41.968877
1.184902	-11.229700	-45.820744
1.185508	-7.587765	-49.258603
1.186113	-3.936109	-53.070885
1.186719	-0.253471	-56.533688
1.187324	3.451644	-59.600649
1.187930	7.204143	-62.648089
1.188535	10.849117	-65.662452
1.189141	14.457032	-68.546675
1.189746	18.032143	-71.179023
1.190352	21.533748	-73.569800
1.190957	25.051754	-75.766180
1.191563	28.522376	-77.846247
1.192168	31.859956	-79.670373
1.192773	35.115525	-81.467387
1.193379	38.335251	-83.099828
1.193984	41.426188	-84.058253
1.194590	44.471563	-85.011527
1.195195	47.465301	-85.783147
1.195801	50.205713	-86.145912
1.196406	52.932153	-86.254633
1.197012	55.397978	-85.897291
1.197617	57.653001	-85.250117
1.198223	59.879472	-84.197069
1.198828	61.858692	-82.817587
1.199434	63.661131	-81.249945
1.200039	65.342072	-79.894051
1.200645	66.530940	-78.564456
1.201250	67.733174	-76.837122
1.201855	68.806011	-74.807754
1.202461	69.575100	-71.949017
1.203066	70.172268	-69.473650
1.203672	70.406762	-67.008043
1.204277	70.489989	-64.278632
1.204883	70.222691	-61.144161
1.205488	69.984552	-57.779234
1.206094	69.586643	-54.222351
1.206699	68.974287	-50.193440
1.207305	68.098886	-46.802214
1.207910	67.078901	-43.215508
1.208516	65.786758	-39.525774
1.209121	64.376154	-35.171242
1.209727	62.851340	-30.812373
1.210332	61.102968	-26.507457
1.210937	59.136505	-21.868245
1.211543	56.925829	-17.624061
1.212148	54.611271	-13.372557
1.212754	52.200121	-8.655261
1.213359	49.691772	-3.599059
1.213965	47.078326	1.215300
1.214570	44.294782	6.158714
1.215176	41.350859	10.857574
1.215781	38.274501	15.479976
1.216387	34.975801	20.040562
1.216992	31.729952	24.717732
1.217598	28.211338	29.393004
1.218203	24.673284	33.587843
1.218809	21.079948	37.697820
1.219414	17.344459	41.825149
1.220020	13.689158	45.836166
1.220625	9.914788	49.561688
1.221230	6.213926	53.245458
1.221836	2.414649	56.665423
1.222441	-1.239437	59.879062
1.223047	-4.999834	62.936805
1.223652	-8.759624	65.746197
1.224258	-12.505441	68.388035
1.224863	-16.151629	70.727027
1.225469	-19.775947	72.843967
1.226074	-23.361386	74.617664
1.226680	-26.826540	76.554849
1.227285	-30.169588	77.842962
1.227891	-33.438521	79.661665
1.228496	-36.622405	81.024880
1.229102	-39.599741	81.829306
1.229707	-42.590441	83.002462
1.230312	-45.318704	83.553929
1.230918	-48.020844	84.201104
1.231523	-50.564427	84.114344
1.232129	-53.064879	83.779505
1.232734	-55.352100	83.351399
1.233340	-57.586468	82.753570
1.233945	-59.549894	81.904679
1.234551	-61.391212	80.908567
1.235156	-63.149304	79.755745
1.235762	-64.671081	77.873057
1.236367	-66.102340	76.657876
1.236973	-67.163027	74.675142
1.237578	-68.118010	72.733077
1.238184	-68.804480	70.520972
1.238789	-69.315991	67.834670
1.239395	-69.837223	64.871821
