LabVIEW Measurement	
Writer_Version	2
Reader_Version	2
Separator	Tab
Decimal_Separator	.
Multi_Headings	No
X_Columns	One
Time_Pref	Absolute
Operator	AlunosGDS-JT
Date	2019/10/09
Time	15:11:28.9575998562499047959
***End_of_Header***	
	
Channels	2		
Samples	2048	2048	
Date	2019/10/09	2019/10/09	
Time	15:14:53.4928146999999033271	15:14:53.4928146999999033271	
Y_Unit_Label	g	Newtons	
X_Dimension	Time	Time	
X0	0.0000000000000000E+0	0.0000000000000000E+0	
Delta_X	0.000605	0.000605	
***End_of_Header***			
X_Value	Acceleration (Trigger)	Force (Trigger)	Comment
0.000000	18.052191	4.381492
0.000605	20.472453	11.940716
0.001211	22.833181	19.239389
0.001816	25.189656	26.780176
0.002422	27.446501	34.268366
0.003027	29.651710	41.622619
0.003633	31.792524	48.746146
0.004238	33.769315	55.927151
0.004844	35.746105	62.854654
0.005449	37.552797	69.480938
0.006055	39.157192	75.654173
0.006660	40.688081	81.772641
0.007266	42.046441	87.582027
0.007871	43.326434	92.941617
0.008477	44.395019	98.292260
0.009082	45.338459	103.168978
0.009687	46.061379	107.670730
0.010293	46.829253	112.018483
0.010898	47.316465	115.896920
0.011504	47.760544	119.513993
0.012109	48.182146	122.880546
0.012715	48.239858	125.598299
0.013320	48.155416	127.919125
0.013926	47.922138	129.719934
0.014531	47.516938	131.172348
0.015137	46.969585	132.229463
0.015742	46.176803	132.922186
0.016348	45.399209	132.943605
0.016953	44.305717	132.588432
0.017559	43.057314	132.016359
0.018164	41.819845	130.923998
0.018770	40.389193	129.557802
0.019375	38.949429	127.801457
0.019980	37.273349	125.653337
0.020586	35.502499	122.943718
0.021191	33.621693	119.894923
0.021797	31.553171	116.453539
0.022402	29.414179	112.643154
0.023008	27.180418	108.392734
0.023613	24.793569	103.738881
0.024219	22.357512	98.878431
0.024824	19.841265	93.406596
0.025430	17.364506	87.842849
0.026035	14.775360	82.222166
0.026641	12.147942	76.123219
0.027246	9.517486	69.710852
0.027852	6.801374	62.994554
0.028457	4.083439	56.206409
0.029062	1.389196	49.202719
0.029668	-1.350001	41.972641
0.030273	-4.187612	34.630588
0.030879	-6.883070	27.172494
0.031484	-9.620445	19.480419
0.032090	-12.200478	11.985723
0.032695	-14.782334	4.589445
0.033301	-17.364798	-3.148721
0.033906	-19.771087	-10.730990
0.034512	-22.181022	-18.154652
0.035117	-24.573339	-25.889564
0.035723	-26.780978	-33.176579
0.036328	-28.943055	-40.574212
0.036934	-31.169526	-47.859871
0.037539	-33.208281	-54.913719
0.038145	-35.008290	-62.137019
0.038750	-36.848394	-68.711248
0.039355	-38.528726	-75.307166
0.039961	-39.989146	-81.484739
0.040566	-41.344468	-87.366244
0.041172	-42.510859	-92.799038
0.041777	-43.643231	-98.252166
0.042383	-44.446340	-103.485412
0.042988	-45.333891	-107.994484
0.043594	-45.890964	-112.309432
0.044199	-46.427990	-116.201696
0.044805	-46.724448	-119.955957
0.045410	-47.031841	-123.153329
0.046016	-47.087731	-125.977634
0.046621	-47.026374	-128.479300
0.047227	-46.641221	-130.183589
0.047832	-46.213545	-131.606993
0.048438	-45.631564	-132.604189
0.049043	-44.846680	-133.354120
0.049648	-44.047216	-133.332701
0.050254	-42.993818	-133.179244
0.050859	-41.767285	-132.358550
0.051465	-40.442337	-131.157468
0.052070	-39.122249	-129.603383
0.052676	-37.671550	-127.777901
0.053281	-36.056220	-125.583419
0.053887	-34.272005	-122.747185
0.054492	-32.360217	-119.591295
0.055098	-30.405904	-116.038750
0.055703	-28.225602	-112.136725
0.056309	-26.043479	-107.738814
0.056914	-23.807288	-103.192597
0.057520	-21.410110	-98.200923
0.058125	-18.916341	-92.592169
0.058730	-16.520379	-87.012426
0.059336	-13.936093	-81.264043
0.059941	-11.335405	-75.121445
0.060547	-8.672144	-68.709350
0.061152	-6.005239	-62.092555
0.061758	-3.397868	-55.288955
0.062363	-0.649559	-48.282826
0.062969	2.078704	-41.144658
0.063574	4.866501	-33.845443
0.064180	7.554668	-26.416359
0.064785	10.206386	-18.924645
0.065391	12.827122	-11.298183
0.065996	15.381641	-4.004661
0.066602	17.916719	3.658674
0.067207	20.323617	11.183736
0.067812	22.650324	18.501930
0.068418	25.156243	25.970870
0.069023	27.343835	33.482104
0.069629	29.535071	40.845305
0.070234	31.670418	47.966120
0.070840	33.721930	55.162308
0.071445	35.654981	62.195279
0.072051	37.391203	68.889616
0.072656	39.063638	75.162624
0.073262	40.598779	81.224156
0.073867	41.953494	86.926177
0.074473	43.223767	92.354361
0.075078	44.316044	97.853581
0.075684	45.264345	102.709964
0.076289	46.109371	107.206564
0.076895	46.708362	111.579261
0.077500	47.236883	115.461765
0.078105	47.665775	119.106492
0.078711	48.034524	122.566584
0.079316	48.159061	125.413392
0.079922	48.149341	127.732591
0.080527	47.841341	129.511982
0.081133	47.433711	131.000998
0.081738	46.875423	132.207231
0.082344	46.181663	132.750836
0.082949	45.325094	132.921915
0.083555	44.192723	132.913781
0.084160	43.094371	132.038862
0.084766	41.791900	130.828291
0.085371	40.361856	129.615009
0.085977	38.895362	127.979314
0.086582	37.232039	125.865627
0.087188	35.501284	123.279913
0.087793	33.572486	120.168487
0.088398	31.552564	116.752589
0.089004	29.384412	112.940307
0.089609	27.198643	108.785052
0.090215	24.787494	104.353792
0.090820	22.393354	99.216795
0.091426	19.955474	93.888384
0.092031	17.342636	88.625585
0.092637	14.775360	82.748418
0.093242	12.245141	76.667637
0.093848	9.564263	70.327660
0.094453	6.868806	63.692971
0.095059	4.155123	56.851685
0.095664	1.432936	49.827119
0.096270	-1.376123	42.709015
0.096875	-4.088591	35.385670
0.097480	-6.821105	27.851390
0.098086	-9.515956	20.221673
0.098691	-12.207768	12.839494
0.099297	-14.813316	5.071233
0.099902	-17.255448	-2.443255
0.100508	-19.748003	-9.657066
0.101113	-22.112375	-17.397943
0.101719	-24.511375	-25.184911
0.102324	-26.812568	-32.462708
0.102930	-28.900530	-39.897757
0.103535	-31.080831	-47.073881
0.104141	-33.063697	-54.128000
0.104746	-34.990672	-61.328526
0.105352	-36.808907	-68.034792
0.105957	-38.499567	-74.762476
0.106563	-40.023165	-80.902905
0.107168	-41.289186	-86.645866
0.107773	-42.540627	-92.395333
0.108379	-43.506545	-97.748687
0.108984	-44.479145	-102.672580
0.109590	-45.305339	-107.492633
0.110195	-45.955359	-111.892984
0.110801	-46.454113	-115.767896
0.111406	-46.727486	-119.457631
0.112012	-46.990531	-122.740949
0.112617	-47.087123	-125.682379
0.113223	-47.005111	-128.140394
0.113828	-46.737813	-130.029048
0.114434	-46.313174	-131.578796
0.115039	-45.649789	-132.564605
0.115645	-44.955421	-133.054527
0.116250	-44.197874	-133.604096
0.116855	-43.033913	-133.364965
0.117461	-41.924626	-132.395423
0.118066	-40.618511	-131.356203
0.118672	-39.279591	-129.802659
0.119277	-37.683093	-128.049568
0.119883	-36.169214	-125.794354
0.120488	-34.446964	-123.178273
0.121094	-32.522418	-120.008556
0.121699	-30.555955	-116.456282
0.122305	-28.461918	-112.434420
0.122910	-26.211755	-108.277267
0.123516	-23.929394	-103.737829
0.124121	-21.563199	-98.550132
0.124727	-19.214621	-93.492032
0.125332	-16.635803	-87.711656
0.125938	-14.141426	-81.785145
0.126543	-11.528588	-75.740965
0.127148	-8.966780	-69.415900
0.127754	-6.289547	-62.809679
0.128359	-3.591659	-55.943992
0.128965	-0.930829	-49.018929
0.129570	1.864258	-41.853107
0.130176	4.610138	-34.586427
0.130781	7.260033	-27.176321
0.131387	9.954276	-19.813121
0.131992	12.574404	-12.179338
0.132598	15.113735	-4.529558
0.133203	17.667646	2.736037
0.133809	20.137115	10.240223
0.134414	22.517890	17.885935
0.135020	24.898058	25.288178
0.135625	27.137286	32.751695
0.136230	29.436049	40.174814
0.136836	31.528871	47.356903
0.137441	33.553654	54.497511
0.138047	35.447217	61.489813
0.138652	37.295219	68.187132
0.139258	38.890502	74.514908
0.139863	40.432326	80.429219
0.140469	41.945597	86.336210
0.141074	43.111381	92.031181
0.141680	44.261977	97.080062
0.142285	45.235793	102.030797
0.142891	46.035257	106.829430
0.143496	46.705932	111.106962
0.144102	47.242958	115.056705
0.144707	47.778161	118.782770
0.145313	47.968307	122.208971
0.145918	48.159668	125.045747
0.146523	48.111069	127.384196
0.147129	47.908165	129.344969
0.147734	47.510863	130.936470
0.148340	47.015147	131.960507
0.148945	46.266105	132.761138
0.149551	45.376124	133.091910
0.150156	44.336699	132.624763
0.150762	43.216477	132.050792
0.151367	41.903072	131.129782
0.151973	40.548965	129.878271
0.152578	39.036908	128.166933
0.153184	37.377838	126.128889
0.153789	35.649513	123.571643
0.154395	33.763847	120.530981
0.155000	31.755467	117.173645
0.155605	29.626803	113.420739
0.156211	27.336545	109.340857
0.156816	25.039604	104.681581
0.157422	22.629670	99.913314
0.158027	20.195435	94.687388
0.158633	17.573484	88.966931
0.159238	15.038406	83.411047
0.159844	12.427390	77.405096
0.160449	9.796327	71.050207
0.161055	7.100869	64.476521
0.161660	4.358027	57.631711
0.162266	1.702664	50.650524
0.162871	-1.094853	43.502054
0.163477	-3.822508	36.121773
0.164082	-6.621847	28.780533
0.164687	-9.350109	21.112860
0.165293	-11.979350	13.474739
0.165898	-14.505316	6.145700
0.166504	-17.198951	-1.466935
0.167109	-19.568791	-9.155757
0.167715	-22.007886	-16.543630
0.168320	-24.316369	-24.258750
0.168926	-26.633964	-31.666415
0.169531	-28.868940	-39.065675
0.170137	-30.917415	-46.376278
0.170742	-32.988975	-53.348788
0.171348	-34.938428	-60.666982
0.171953	-36.746942	-67.362403
0.172559	-38.381712	-73.887286
0.173164	-39.874936	-80.277692
0.173770	-41.243016	-86.068642
0.174375	-42.417913	-91.622899
0.174980	-43.478600	-97.142182
0.175586	-44.497977	-102.431008
0.176191	-45.219682	-106.921644
0.176797	-45.895217	-111.339348
0.177402	-46.487525	-115.362294
0.178008	-46.805853	-119.119538
0.178613	-47.016046	-122.413430
0.179219	-47.141798	-125.351336
0.179824	-47.078011	-127.948980
0.180430	-46.793703	-129.799406
0.181035	-46.403083	-131.334242
0.181641	-45.762175	-132.381596
0.182246	-45.028321	-133.051002
0.182852	-44.247689	-133.229945
0.183457	-43.242892	-133.286338
0.184062	-42.020003	-132.501433
0.184668	-40.755197	-131.316890
0.185273	-39.354920	-129.862578
0.185879	-37.899361	-128.110571
0.186484	-36.276740	-125.995528
0.187090	-34.656550	-123.312208
0.187695	-32.752051	-120.260973
0.188301	-30.731521	-116.745300
0.188906	-28.638092	-112.829991
0.189512	-26.431668	-108.499318
0.190117	-24.058183	-104.185998
0.190723	-21.767925	-99.090754
0.191328	-19.358598	-93.672059
0.191934	-16.878801	-88.339039
0.192539	-14.355872	-82.349355
0.193145	-11.772801	-76.268573
0.193750	-9.119261	-69.971163
0.194355	-6.493058	-63.520026
0.194961	-3.817648	-56.665997
0.195566	-1.008588	-49.668814
0.196172	1.666822	-42.556404
0.196777	4.423636	-35.330935
0.197383	7.097224	-27.928150
0.197988	9.762307	-20.385465
0.198594	12.419492	-13.006268
0.199199	15.046303	-5.381432
0.199805	17.499370	2.233644
0.200410	19.976737	9.461553
0.201016	22.458356	17.042738
0.201621	24.783849	24.580814
0.202227	27.018217	32.011796
0.202832	29.209453	39.353849
0.203437	31.341763	46.575251
0.204043	33.333133	53.723721
0.204648	35.274689	60.756692
0.205254	37.155495	67.536162
0.205859	38.820640	73.927923
0.206465	40.358819	79.976712
0.207070	41.762741	85.655416
0.207676	43.101053	91.435249
0.208281	44.167208	96.799448
0.208887	45.189623	101.520269
0.209492	46.007919	106.323241
0.210098	46.637892	110.768870
0.210703	47.222303	114.693398
0.211309	47.766011	118.412956
0.211914	47.979850	121.917512
0.212520	48.174856	124.870871
0.213125	48.057609	127.241585
0.213730	47.872931	129.177956
0.214336	47.539416	130.730686
0.214941	46.990847	131.953729
0.215547	46.322602	132.530954
0.216152	45.483651	133.059918
0.216758	44.372541	132.938454
0.217363	43.241992	132.097154
0.217969	41.969897	131.114328
0.218574	40.503403	129.929242
0.219180	39.078218	128.327981
0.219785	37.513917	126.350669
0.220391	35.711478	123.836260
0.220996	33.910254	120.791260
0.221602	31.818039	117.452361
0.222207	29.735545	113.690508
0.222812	27.482344	109.751068
0.223418	25.119186	105.273718
0.224023	22.813741	100.244899
0.224629	20.299924	95.252683
0.225234	17.724143	89.696527
0.225840	15.217617	83.886870
0.226445	12.569544	78.008890
0.227051	9.906891	71.670811
0.227656	7.258818	65.104988
0.228262	4.545136	58.313860
0.228867	1.863043	51.357617
0.229473	-0.916249	44.244394
0.230078	-3.670634	36.902612
0.230684	-6.448103	29.402764
0.231289	-9.119261	21.898308
0.231895	-11.831121	14.297602
0.232500	-14.374705	6.648636
0.233105	-16.938943	-0.606657
0.233711	-19.415702	-8.226884
0.234316	-21.843255	-15.822709
0.234922	-24.167532	-23.435345
0.235527	-26.499100	-30.902928
0.236133	-28.737114	-38.313034
0.236738	-30.718764	-45.585950
0.237344	-32.869298	-52.552224
0.237949	-34.760432	-59.843306
0.238555	-36.627265	-66.583191
0.239160	-38.297271	-73.294879
0.239766	-39.827552	-79.537251
0.240371	-41.196239	-85.517445
0.240977	-42.361416	-91.172561
0.241582	-43.483460	-96.295460
0.242187	-44.343673	-101.770007
0.242793	-45.211784	-106.494894
0.243398	-45.915872	-110.931577
0.244004	-46.427990	-114.875897
0.244609	-46.770010	-118.677605
0.245215	-47.067683	-122.078863
0.245820	-47.147265	-125.067740
0.246426	-47.113245	-127.653726
0.247031	-46.907304	-129.745452
0.247637	-46.452898	-131.289506
0.248242	-45.923769	-132.236273
0.248848	-45.138278	-133.169755
0.249453	-44.299326	-133.356017
0.250059	-43.315791	-133.220726
0.250664	-42.182812	-132.761170
0.251270	-40.893099	-131.709207
0.251875	-39.537169	-130.133702
0.252480	-38.125349	-128.378442
0.253086	-36.440157	-126.261230
0.253691	-34.794451	-123.690427
0.254297	-32.896028	-120.631329
0.254902	-30.910125	-117.148463
0.255508	-28.836743	-113.315033
0.256113	-26.634572	-109.045634
0.256719	-24.416606	-104.547678
0.257324	-22.051626	-99.826857
0.257930	-19.646551	-94.457778
0.258535	-17.173437	-88.658423
0.259141	-14.644433	-83.044518
0.259746	-12.029165	-77.045887
0.260352	-9.464318	-70.707538
0.260957	-6.801058	-64.192415
0.261562	-4.072188	-57.399389
0.262168	-1.316589	-50.421998
0.262773	1.417749	-43.283560
0.263379	4.109561	-36.098759
0.263984	6.843899	-28.766196
0.264590	9.481644	-21.243574
0.265195	12.128502	-13.675132
0.265801	14.729798	-6.349889
0.266406	17.271559	1.401020
0.267012	19.697289	8.874297
0.267617	22.122411	16.126337
0.268223	24.491643	23.701828
0.268828	26.734517	31.197880
0.269434	29.032672	38.687967
0.270039	31.144327	45.840775
0.270645	33.163034	52.985449
0.271250	35.182957	60.071561
0.271855	36.981751	66.836118
0.272461	38.612876	73.137324
0.273066	40.192365	79.349872
0.273672	41.608437	85.188810
0.274277	42.927310	90.664713
0.274883	44.052391	96.236052
0.275488	45.040786	101.220948
0.276094	45.907075	105.760386
0.276699	46.597797	110.249124
0.277305	47.191321	114.298641
0.277910	47.610493	117.949604
0.278516	48.027842	121.504047
0.279121	48.128079	124.494008
0.279727	48.136584	126.953108
0.280332	47.865033	128.904120
0.280938	47.563108	130.552287
0.281543	47.062532	131.862089
0.282148	46.361482	132.587076
0.282754	45.551690	132.814008
0.283359	44.546285	132.961499
0.283965	43.344659	132.356620
0.284570	42.144855	131.253415
0.285176	40.721493	130.072396
0.285781	39.257429	128.553556
0.286387	37.710746	126.578414
0.286992	35.922886	124.123923
0.287598	34.108297	121.204725
0.288203	32.039775	117.891312
0.288809	29.894708	114.125934
0.289414	27.750857	110.158297
0.290020	25.385877	105.819220
0.290625	22.970474	100.886109
0.291230	20.535025	95.591046
0.291836	18.012096	90.389251
0.292441	15.467297	84.692381
0.293047	12.855674	78.598315
0.293652	10.273211	72.450023
0.294258	7.580183	65.847327
0.294863	4.792994	59.065417
0.295469	2.133378	52.070133
0.296074	-0.639839	45.005711
0.296680	-3.374783	37.732524
0.297285	-6.153468	30.199599
0.297891	-8.848318	22.598622
0.298496	-11.557141	15.202073
0.299102	-14.154184	7.514608
0.299707	-16.666785	-0.099925
0.300312	-19.150834	-7.358472
0.300918	-21.620304	-14.960533
0.301523	-23.933647	-22.761058
0.302129	-26.268859	-30.188786
0.302734	-28.446123	-37.525146
0.303340	-30.586330	-44.932540
0.303945	-32.708919	-51.896916
0.304551	-34.610380	-59.176881
0.305156	-36.517916	-65.959876
0.305762	-38.177594	-72.694067
0.306367	-39.738857	-79.063325
0.306973	-41.145817	-84.829060
0.307578	-42.357771	-90.733068
0.308184	-43.383830	-96.050634
0.308789	-44.431153	-101.104396
0.309395	-45.298049	-106.102035
0.310000	-45.993024	-110.650963
0.310605	-46.500282	-114.600163
0.311211	-46.839265	-118.371506
0.311816	-47.113853	-121.821837
0.312422	-47.243857	-124.788482
0.313027	-47.201940	-127.466921
0.313633	-47.083478	-129.471074
0.314238	-46.654586	-131.205458
0.314844	-46.053166	-132.281551
0.315449	-45.380061	-132.873416
0.316055	-44.609756	-133.508118
0.316660	-43.628044	-133.436270
0.317266	-42.557029	-132.609069
0.317871	-41.239979	-131.774277
0.318477	-39.887694	-130.301799
0.319082	-38.466762	-128.577989
0.319688	-36.900031	-126.551605
0.320293	-35.154696	-123.993002
0.320898	-33.371089	-121.035033
0.321504	-31.380327	-117.586058
0.322109	-29.299047	-113.788145
0.322715	-27.124821	-109.587612
0.323320	-24.840030	-105.218711
0.323926	-22.486592	-100.174168
0.324531	-20.105210	-95.174360
0.325137	-17.594431	-89.537951
0.325742	-15.115849	-83.622556
0.326348	-12.495721	-77.688453
0.326953	-9.791151	-71.404057
0.327559	-7.161303	-64.903303
0.328164	-4.525380	-58.159080
0.328770	-1.716321	-51.222900
0.329375	0.976707	-44.107236
0.329980	3.669127	-36.925689
0.330586	6.465429	-29.483862
0.331191	9.170606	-22.158619
0.331797	11.798632	-14.603191
0.332402	14.415115	-6.929553
0.333008	16.999401	0.355022
0.333613	19.501068	7.944340
0.334219	21.887917	15.513867
0.334824	24.267477	22.996091
0.335430	26.634280	30.389386
0.336035	28.778739	37.832027
0.336641	31.001565	45.078644
0.337246	33.003870	52.176685
0.337852	34.978838	59.299398
0.338457	36.862682	66.172676
0.339062	38.585539	72.642793
0.339668	40.186897	78.619462
0.340273	41.543435	84.577696
0.340879	42.932777	90.316318
0.341484	44.145946	95.496966
0.342090	45.027422	100.675174
0.342695	45.975115	105.474079
0.343301	46.701679	109.854367
0.343906	47.313427	113.968953
0.344512	47.715589	117.667634
0.345117	48.074619	121.226415
0.345723	48.242288	124.319404
0.346328	48.371684	126.834898
0.346934	48.155416	128.912796
0.347539	47.784236	130.509720
0.348145	47.309782	131.721647
0.348750	46.629387	132.696068
0.349355	45.833568	133.063171
0.349961	44.834238	132.807229
0.350566	43.659949	132.489743
0.351172	42.416406	131.520472
0.351777	41.049541	130.248627
0.352383	39.561177	128.766118
0.352988	37.995661	126.835711
0.353594	36.243036	124.423245
0.354199	34.362838	121.471512
0.354805	32.348383	118.235098
0.355410	30.255561	114.576001
0.356016	28.024230	110.609991
0.356621	25.725467	106.152161
0.357227	23.325252	101.494783
0.357832	20.952374	96.300037
0.358438	18.274534	90.699146
0.359043	15.789878	85.333862
0.359648	13.126010	79.357735
0.360254	10.537471	73.063849
0.360859	7.829256	66.511040
0.361465	5.139266	59.753260
0.362070	2.348432	52.830095
0.362676	-0.398055	45.716600
0.363281	-3.139683	38.483539
0.363887	-5.924442	31.069638
0.364492	-8.660602	23.418232
0.365098	-11.399192	15.738358
0.365703	-13.971328	8.432907
0.366309	-16.516126	0.692301
0.366914	-18.955828	-6.887800
0.367520	-21.455672	-14.147431
0.368125	-23.930609	-21.905389
0.368730	-26.188062	-29.406321
0.369336	-28.488040	-36.920538
0.369941	-30.561423	-44.215144
0.370547	-32.673685	-51.199584
0.371152	-34.579398	-58.487683
0.371758	-36.500906	-65.289656
0.372363	-38.231054	-72.002700
0.372969	-39.823907	-78.477425
0.373574	-41.200492	-84.460873
0.374180	-42.398473	-90.054444
0.374785	-43.604351	-95.581047
0.375391	-44.536249	-100.852792
0.375996	-45.416510	-105.587441
0.376602	-46.125458	-110.226653
0.377207	-46.677671	-114.217606
0.377812	-47.042168	-118.078962
0.378418	-47.378113	-121.530920
0.379023	-47.544567	-124.576462
0.379629	-47.485033	-127.308855
0.380234	-47.290634	-129.395430
0.380840	-46.966839	-131.125476
0.381445	-46.376353	-132.382680
0.382051	-45.678341	-133.102245
0.382656	-44.874017	-133.356831
0.383262	-43.886837	-133.729627
0.383867	-42.705865	-133.073506
0.384473	-41.572279	-132.018560
0.385078	-40.186582	-130.677307
0.385684	-38.684245	-128.915540
0.386289	-37.079242	-126.908676
0.386895	-35.411059	-124.396978
0.387500	-33.580068	-121.476424
0.388105	-31.608137	-118.111497
0.388711	-29.530503	-114.319007
0.389316	-27.361744	-110.047168
0.389922	-25.121300	-105.792953
0.390527	-22.752068	-100.884785
0.391133	-20.380405	-95.590807
0.391738	-17.895141	-90.308487
0.392344	-15.352772	-84.337782
0.392949	-12.734467	-78.349454
0.393555	-10.082141	-72.088917
0.394160	-7.400656	-65.677093
0.394766	-4.716134	-58.895454
0.395371	-2.019461	-52.012686
0.395977	0.720344	-44.872079
0.396582	3.531226	-37.657183
0.397187	6.246123	-30.327331
0.397793	8.884476	-22.846462
0.398398	11.584794	-15.507934
0.399004	14.241371	-7.758110
0.399609	16.783740	-0.208375
0.400215	19.306062	7.101414
0.400820	21.802868	14.625663
0.401426	24.113174	22.215252
0.402031	26.409507	29.607734
0.402637	28.713130	37.106497
0.403242	30.840579	44.399206
0.403848	32.852604	51.462000
0.404453	34.944819	58.584713
0.405059	36.764268	65.439556
0.405664	38.448853	71.946545
0.406270	40.056893	78.120864
0.406875	41.525817	83.909103
0.407480	42.861093	89.766749
0.408086	44.051176	95.170803
0.408691	45.042001	99.980824
0.409297	45.939272	104.912037
0.409902	46.673127	109.416501
0.410508	47.304922	113.548439
0.411113	47.702224	117.261490
0.411719	48.103779	120.823524
0.412324	48.388087	123.980770
0.412930	48.409957	126.546963
0.413535	48.136584	128.617271
0.414141	47.921530	130.358432
0.414746	47.372354	131.677996
0.415352	46.701679	132.408676
0.415957	45.937450	133.031449
0.416563	44.886483	133.009488
0.417168	43.831263	132.346860
0.417773	42.568887	131.529691
0.418379	41.183190	130.433534
0.418984	39.737958	128.930148
0.419590	38.109870	126.956090
0.420195	36.385798	124.690031
0.420801	34.486767	121.784932
0.421406	32.514229	118.582680
0.422012	30.391640	114.906773
0.422617	28.231993	111.079579
0.423223	25.898603	106.762734
0.423828	23.532408	101.819591
0.424434	21.053826	96.950194
0.425039	18.497485	91.419524
0.425645	15.953901	85.705574
0.426250	13.333773	79.885885
0.426855	10.723972	73.745185
0.427461	8.030945	67.217048
0.428066	5.246793	60.432698
0.428672	2.516708	53.568367
0.429277	-0.158095	46.499065
0.429883	-2.923414	39.229131
0.430488	-5.699061	31.833396
0.431094	-8.454661	24.355238
0.431699	-11.232738	16.621410
0.432305	-13.796369	9.054053
0.432910	-16.370327	1.701697
0.433516	-18.896294	-6.038638
0.434121	-21.310481	-13.594066
0.434727	-23.685181	-21.108554
0.435332	-25.988804	-28.640123
0.435937	-28.232285	-36.061615
0.436543	-30.393754	-43.508051
0.437148	-32.447696	-50.429590
0.437754	-34.437852	-57.747242
0.438359	-36.367257	-64.628383
0.438965	-38.088900	-71.363117
0.439570	-39.687828	-77.687639
0.440176	-41.140350	-83.817766
0.440781	-42.354126	-89.637183
0.441387	-43.533882	-94.786652
0.441992	-44.560549	-100.292378
0.442598	-45.319311	-105.221694
0.443203	-46.073821	-109.761674
0.443809	-46.627857	-113.800074
0.444414	-47.062823	-117.754697
0.445020	-47.393301	-121.247053
0.445625	-47.464378	-124.289612
0.446230	-47.449190	-127.030410
0.446836	-47.354421	-129.222453
0.447441	-46.929174	-130.996420
0.448047	-46.427383	-132.129721
0.448652	-45.774933	-133.076488
0.449258	-44.918972	-133.512456
0.449863	-43.988896	-133.414038
0.450469	-42.855917	-133.011418
0.451074	-41.567419	-132.227597
0.451680	-40.243686	-130.770031
0.452285	-38.825184	-129.048391
0.452891	-37.269388	-127.144012
0.453496	-35.576906	-124.635296
0.454102	-33.758672	-121.757309
0.454707	-31.867538	-118.433322
0.455313	-29.753454	-114.769074
0.455918	-27.565255	-110.558238
0.456523	-25.331494	-106.104204
0.457129	-23.000534	-101.514336
0.457734	-20.583309	-96.335315
0.458340	-18.175197	-90.622721
0.458945	-15.642548	-85.029692
0.459551	-13.016345	-79.102096
0.460156	-10.483696	-72.863249
0.460762	-7.763939	-66.353820
0.461367	-5.123156	-59.714521
0.461973	-2.331714	-52.793796
0.462578	0.428746	-45.618214
0.463184	3.132708	-38.511226
0.463789	5.837279	-31.165919
0.464395	8.573438	-23.763677
0.465000	11.189921	-16.119049
0.465605	13.803975	-8.759915
0.466211	16.390083	-1.137519
0.466816	18.863805	6.494908
0.467422	21.419538	13.788972
0.468027	23.728021	21.268214
0.468633	26.045009	28.737967
0.469238	28.301855	36.213142
0.469844	30.487624	43.505308
0.470449	32.534276	50.615007
0.471055	34.540834	57.724706
0.471660	36.421033	64.657632
0.472266	38.200995	71.155675
0.472871	39.825438	77.443053
0.473477	41.228145	83.351128
0.474082	42.645432	88.869326
0.474687	43.796028	94.575685
0.475293	44.837883	99.696957
0.475898	45.782539	104.329391
0.476504	46.500598	108.824907
0.477109	47.060709	113.096745
0.477715	47.610493	116.836095
0.478320	47.967700	120.387556
0.478926	48.238035	123.691751
0.479531	48.276915	126.315965
0.480137	48.155416	128.462458
0.480742	47.870501	130.114149
0.481348	47.388149	131.540264
0.481953	46.702894	132.453954
0.482559	45.958712	132.813465
0.483164	44.987934	133.115769
0.483770	43.865283	132.628016
0.484375	42.630244	131.609130
0.484980	41.385486	130.529783
0.485586	39.923244	129.140541
0.486191	38.314596	127.245651
0.486797	36.619076	124.979864
0.487402	34.812385	122.187823
0.488008	32.836202	118.953849
0.488613	30.736697	115.405913
0.489219	28.575836	111.459695
0.489824	26.283148	107.325046
0.490430	23.880503	102.423385
0.491035	21.480895	97.377486
0.491641	18.880207	92.149662
0.492246	16.400411	86.460656
0.492852	13.798507	80.497000
0.493457	11.179594	74.423810
0.494063	8.470164	67.940409
0.494668	5.727929	61.179375
0.495273	3.014247	54.256481
0.495879	0.282340	47.264721
0.496484	-2.407651	40.062297
0.497090	-5.210027	32.607999
0.497695	-8.006329	25.074532
0.498301	-10.735199	17.541878
0.498906	-13.324345	9.811304
0.499512	-15.962090	2.320404
0.500117	-18.449177	-4.970136
0.500723	-20.924721	-12.629676
0.501328	-23.253252	-20.331511
0.501934	-25.615194	-27.846270
0.502539	-27.839843	-35.216249
0.503145	-29.953927	-42.657262
0.503750	-32.110536	-49.674508
0.504355	-34.051484	-56.915160
0.504961	-36.004582	-63.843206
0.505566	-37.833751	-70.673647
0.506172	-39.405950	-77.122616
0.506777	-40.889454	-83.096303
0.507383	-42.148185	-89.150514
0.507988	-43.313968	-94.304863
0.508594	-44.325449	-99.634088
0.509199	-45.189915	-104.770000
0.509805	-45.926199	-109.323808
0.510410	-46.557387	-113.479063
0.511016	-46.954082	-117.301919
0.511621	-47.350776	-120.950713
0.512227	-47.517837	-123.995984
0.512832	-47.543352	-126.787754
0.513437	-47.506295	-129.066014
0.514043	-47.075581	-130.934875
0.514648	-46.586547	-132.078479
0.515254	-45.971761	-132.949331
0.515859	-45.110333	-133.601927
0.516465	-44.305401	-133.598674
0.517070	-43.207657	-133.076488
0.517676	-41.972618	-132.465916
0.518281	-40.664681	-131.018924
0.518887	-39.192111	-129.333614
0.519492	-37.624166	-127.465023
0.520098	-36.052575	-125.074518
0.520703	-34.250743	-122.278953
0.521309	-32.294607	-118.903181
0.521914	-30.257067	-115.281228
0.522520	-28.171535	-111.213004
0.523125	-25.864875	-106.790691
0.523730	-23.564897	-102.075293
0.524336	-21.148280	-97.124016
0.524941	-18.648436	-91.407626
0.525547	-16.166816	-85.633758
0.526152	-13.606223	-79.902727
0.526758	-10.968477	-73.628905
0.527363	-8.290030	-67.195119
0.527969	-5.655322	-60.521117
0.528574	-2.917947	-53.668173
0.529180	-0.165992	-46.544646
0.529785	2.605402	-39.301554
0.530391	5.330020	-32.053039
0.530996	8.026085	-24.674926
0.531602	10.731262	-16.997763
0.532207	13.312511	-9.557563
0.532813	15.944789	-2.083473
0.533418	18.447670	5.651440
0.534023	20.882512	13.040397
0.534629	23.327074	20.511234
0.535234	25.710887	27.904259
0.535840	27.910021	35.434472
0.536445	30.154716	42.712811
0.537051	32.201976	49.869957
0.537656	34.261386	56.989417
0.538262	36.168922	63.894146
0.538867	38.042438	70.566250
0.539473	39.654731	76.707492
0.540078	41.103608	82.842499
0.540684	42.503885	88.389978
0.541289	43.754718	93.938542
0.541895	44.837883	99.272647
0.542500	45.749734	103.940056
0.543105	46.580788	108.439097
0.543711	47.243565	112.714731
0.544316	47.745964	116.540298
0.544922	48.175463	120.102875
0.545527	48.409957	123.398936
0.546133	48.527811	126.100964
0.546738	48.404489	128.319576
0.547344	48.143874	129.984009
0.547949	47.688859	131.465434
0.548555	47.097766	132.603344
0.549160	46.356622	132.896972
0.549766	45.475753	133.141526
0.550371	44.354924	132.911070
0.550977	43.147830	131.931497
0.551582	41.783396	130.734211
0.552187	40.333304	129.396483
0.552793	38.929382	127.646374
0.553398	37.176757	125.394413
0.554004	35.309923	122.608879
0.554609	33.365938	119.454887
0.555215	31.345408	115.895293
0.555820	29.159031	112.000047
0.556426	26.849941	107.835302
0.557031	24.433324	103.227540
0.557637	21.985117	97.962030
0.558242	19.467048	92.732309
0.558848	16.841452	87.285688
0.559453	14.364086	81.342909
0.560059	11.616991	75.152864
0.560664	8.923356	68.740226
0.561270	6.285610	62.051583
0.561875	3.547020	55.173967
0.562480	0.747681	48.049356
0.563086	-2.052266	40.886787
0.563691	-4.783566	33.496474
0.564297	-7.632719	25.852388
0.564902	-10.376169	18.351998
0.565508	-13.083169	10.757800
0.566113	-15.649838	2.983032
0.566719	-18.190384	-4.348447
0.567324	-20.654386	-11.704056
0.567930	-23.083760	-19.541725
0.568535	-25.445703	-27.108269
0.569141	-27.728064	-34.484755
0.569746	-29.937525	-42.016866
0.570352	-32.051609	-49.021369
0.570957	-33.998632	-56.208068
0.571562	-35.960843	-63.197116
0.572168	-37.769964	-69.969537
0.572773	-39.441792	-76.656282
0.573379	-41.022495	-82.550529
0.573984	-42.207112	-88.500358
0.574590	-43.453692	-94.046210
0.575195	-44.493725	-99.106479
0.575801	-45.406791	-104.187624
0.576406	-46.174665	-108.980835
0.577012	-46.793703	-113.160492
0.577617	-47.319186	-117.060889
0.578223	-47.613214	-120.663864
0.578828	-47.804575	-123.814060
0.579434	-47.929112	-126.670086
0.580039	-47.780883	-128.944279
0.580645	-47.485640	-130.972290
0.581250	-46.990531	-132.298089
0.581855	-46.417663	-132.984577
0.582461	-45.624274	-133.630667
0.583066	-44.671721	-133.900164
0.583672	-43.654773	-133.325923
0.584277	-42.432492	-132.533697
0.584883	-41.122125	-131.352949
0.585488	-39.704838	-129.598231
0.586094	-38.122312	-127.730183
0.586699	-36.423754	-125.390107
0.587305	-34.697860	-122.648767
0.587910	-32.804296	-119.379276
0.588516	-30.737596	-115.749189
0.589121	-28.597390	-111.760404
0.589727	-26.267037	-107.344057
0.590332	-23.996219	-102.551930
0.590938	-21.585676	-97.614752
0.591543	-19.094945	-92.290679
0.592148	-16.530706	-86.263851
0.592754	-14.035722	-80.462870
0.593359	-11.336620	-74.311596
0.593965	-8.687332	-67.919564
0.594570	-6.075708	-61.271047
0.595176	-3.225340	-54.431931
0.595781	-0.494647	-47.337957
0.596387	2.342357	-40.107878
0.596992	5.000150	-32.828997
0.597598	7.755142	-25.450885
0.598203	10.503452	-17.992790
0.598809	13.139982	-10.216125
0.599414	15.788055	-2.918536
0.600020	18.330424	4.731785
0.600625	20.833913	12.336829
0.601230	23.185528	19.694065
0.601836	25.554760	27.139416
0.602441	27.899693	34.572838
0.603047	30.135277	42.025781
0.603652	32.155199	49.100234
0.604258	34.151429	56.252500
0.604863	36.117285	63.195187
0.605469	37.956781	69.936427
0.606074	39.679639	76.100986
0.606680	41.149170	82.148149
0.607285	42.534260	87.914968
0.607891	43.840983	93.240125
0.608496	44.924147	98.674275
0.609102	45.849363	103.585154
0.609707	46.679809	108.047322
0.610313	47.313427	112.302079
0.610918	47.825546	116.191090
0.611523	48.207053	119.726012
0.612129	48.547858	123.139199
0.612734	48.697302	125.936391
0.613340	48.613468	128.215464
0.613945	48.324907	129.908908
0.614551	47.864426	131.291914
0.615156	47.247210	132.464528
0.615762	46.476298	132.984545
0.616367	45.658002	133.006235
0.616973	44.501938	132.876095
0.617578	43.265685	132.040489
0.618184	41.942559	130.819073
0.618789	40.525272	129.474838
0.619395	39.038731	127.806066
0.620000	37.278816	125.544345
0.620605	35.481845	122.869701
0.621211	33.508092	119.737941
0.621816	31.477842	116.290864
0.622422	29.294503	112.360642
0.623027	27.014572	108.175021
0.623633	24.608282	103.689537
0.624238	22.169795	98.585346
0.624844	19.651726	93.135742
0.625449	17.019448	87.754462
0.626055	14.378058	81.955379
0.626660	11.793772	75.833115
0.627266	9.122614	69.375200
0.627871	6.427157	62.743764
0.628477	3.593190	55.872383
0.629082	0.878900	48.768649
0.629687	-1.986656	41.556465
0.630293	-4.665104	34.247489
0.630898	-7.499678	26.638378
0.631504	-10.209715	18.961486
0.632109	-12.932510	11.533758
0.632715	-15.570863	3.813486
0.633320	-18.072530	-3.858525
0.633926	-20.563262	-10.999946
0.634531	-22.984131	-18.683616
0.635137	-25.254949	-26.290286
0.635742	-27.589555	-33.724250
0.636348	-29.745556	-41.256904
0.636953	-31.951980	-48.253273
0.637559	-33.977977	-55.527274
0.638164	-35.789529	-62.396214
0.638770	-37.661830	-69.229638
0.639375	-39.302068	-75.888186
0.639980	-40.846322	-82.034037
0.640586	-42.138465	-87.850743
0.641191	-43.354063	-93.363248
0.641797	-44.378301	-98.789535
0.642402	-45.281039	-103.621245
0.643008	-46.141253	-108.476273
0.643613	-46.640614	-112.710696
0.644219	-47.207407	-116.735269
0.644824	-47.469845	-120.285916
0.645430	-47.744433	-123.464580
0.646035	-47.707984	-126.389201
0.646641	-47.663636	-128.716263
0.647246	-47.367786	-130.677578
0.647852	-46.918847	-132.151140
0.648457	-46.281584	-133.113361
0.649062	-45.548944	-133.425696
0.649668	-44.601251	-133.844855
0.650273	-43.493180	-133.602470
0.650879	-42.379033	-132.707216
0.651484	-41.017635	-131.458146
0.652090	-39.619181	-129.822993
0.652695	-38.105909	-127.986938
0.653301	-36.414642	-125.613514
0.653906	-34.652905	-122.993366
0.654512	-32.739294	-119.733093
0.655117	-30.773439	-116.206847
0.655723	-28.608932	-112.122898
0.656328	-26.394003	-107.845095
0.656934	-24.048463	-103.256312
0.657539	-21.608761	-98.029301
0.658145	-19.228594	-92.860583
0.658750	-16.705665	-87.136330
0.659355	-14.111052	-81.107333
0.659961	-11.514008	-74.941961
0.660566	-8.879908	-68.637773
0.661172	-6.196600	-62.004168
0.661777	-3.476843	-55.151224
0.662383	-0.699373	-48.107408
0.662988	2.013702	-40.928572
0.663594	4.760796	-33.648607
0.664199	7.496956	-26.146319
0.664805	10.262276	-18.768207
0.665410	12.871469	-11.233113
0.666016	15.496457	-3.449669
0.666621	17.968964	3.866898
0.667227	20.482780	11.302489
0.667832	22.879958	18.928138
0.668438	25.275312	26.360204
0.669043	27.540663	33.693039
0.669648	29.681477	41.107754
0.670254	31.827152	48.322920
0.670859	33.833709	55.404151
0.671465	35.790452	62.331384
0.672070	37.587424	69.132001
0.672676	39.233737	75.511562
0.673281	40.790748	81.331250
0.673887	42.281542	87.291381
0.674492	43.466766	92.911251
0.675098	44.554183	97.893436
0.675703	45.584495	102.889177
0.676309	46.284330	107.538692
0.676914	46.940425	111.746545
0.677520	47.569183	115.720960
0.678125	47.953727	119.224160
0.678730	48.146304	122.598577
0.679336	48.318832	125.479275
0.679941	48.361964	127.844837
0.680547	48.092236	129.696617
0.681152	47.627502	131.165570
0.681758	47.071036	132.101763
0.682363	46.348724	132.844374
0.682969	45.444771	133.206867
0.683574	44.426001	132.683326
0.684180	43.218300	132.021782
0.684785	41.937699	130.926981
0.685391	40.394053	129.587354
0.685996	38.960971	127.896622
0.686602	37.334706	125.760973
0.687207	35.551099	123.193966
0.687813	33.672723	120.117516
0.688418	31.600556	116.633565
0.689023	29.385020	112.828603
0.689629	27.136679	108.748721
0.690234	24.834271	103.970964
0.690840	22.433448	99.284847
0.691445	19.796918	93.939627
0.692051	17.306186	88.206698
0.692656	14.744378	82.535043
0.693262	12.106632	76.472969
0.693867	9.504121	70.182609
0.694473	6.712072	63.420762
0.695078	3.994745	56.671387
0.695684	1.316904	49.654955
0.696289	-1.528605	42.459309
0.696895	-4.228922	35.117528
0.697500	-6.967512	27.666211
0.698105	-9.778394	20.011281
0.698711	-12.439831	12.219703
0.699316	-15.048417	4.768116
0.699922	-17.599898	-2.712753
0.700527	-20.138622	-10.334606
0.701133	-22.469582	-17.878376
0.701738	-24.875265	-25.431364
0.702344	-27.198327	-32.839571
0.702949	-29.317879	-40.406386
0.703555	-31.480563	-47.538047
0.704160	-33.465251	-54.594334
0.704766	-35.442649	-61.723283
0.705371	-37.293688	-68.452866
0.705977	-38.984348	-75.198987
0.706582	-40.542574	-81.261874
0.707187	-41.852334	-87.458697
0.707793	-43.116532	-92.838079
0.708398	-44.168715	-97.982397
0.709004	-45.062948	-103.307012
0.709609	-45.870917	-107.958154
0.710215	-46.539162	-112.404867
0.710820	-47.054318	-116.273002
0.711426	-47.411526	-119.990933
0.712031	-47.591344	-123.125675
0.712637	-47.673964	-126.067647
0.713242	-47.575550	-128.487163
0.713848	-47.351384	-130.517886
0.714453	-46.975951	-132.008800
0.715059	-46.375746	-133.063745
0.715664	-45.550159	-133.685434
0.716270	-44.709993	-133.619008
0.716875	-43.754403	-133.621720
0.717480	-42.577076	-132.996777
0.718086	-41.299513	-131.799220
0.718691	-39.898629	-130.163526
0.719297	-38.350123	-128.258605
0.719902	-36.765167	-126.050024
0.720508	-35.057497	-123.367518
0.721113	-33.151784	-120.309504
0.721719	-31.161021	-116.737438
0.722324	-29.077919	-112.802878
0.722930	-26.871495	-108.376770
0.723535	-24.512590	-103.934936
0.724141	-22.167657	-98.852435
0.724746	-19.697580	-93.436722
0.725352	-17.212316	-87.971665
0.725957	-14.658405	-82.018854
0.726562	-12.080194	-75.852397
0.727168	-9.441841	-69.517030
0.727773	-6.709934	-62.941446
0.728379	-4.105601	-56.154114
0.728984	-1.256447	-49.114907
0.729590	1.473638	-41.858800
0.730195	4.229845	-34.666408
0.730801	6.846329	-27.268233
0.731406	9.649313	-19.702502
0.732012	12.267619	-12.383223
0.732617	14.923589	-4.656174
0.733223	17.473248	3.022345
0.733828	19.946969	10.331592
0.734434	22.343539	17.812461
0.735039	24.736464	25.352706
0.735645	27.076537	32.789381
0.736250	29.200948	40.171832
0.736855	31.336295	47.468336
0.737461	33.392060	54.590778
0.738066	35.371888	61.585249
0.738672	37.252087	68.218311
0.739277	38.920877	74.621731
0.739883	40.519197	80.702512
0.740488	41.936484	86.430561
0.741094	43.175775	92.242387
0.741699	44.314222	97.470753
0.742305	45.335422	102.177204
0.742910	46.175588	106.873081
0.743516	46.831076	111.266655
0.744121	47.413664	115.290414
0.744727	47.954942	118.937582
0.745332	48.177893	122.311998
0.745938	48.399629	125.154468
0.746543	48.365002	127.506744
0.747148	48.162706	129.447725
0.747754	47.743534	131.136831
0.748359	47.246603	132.195572
0.748965	46.594153	132.724808
0.749570	45.699919	133.224219
0.750176	44.590632	132.846814
0.750781	43.497140	132.054317
0.751387	42.173408	131.149032
0.751992	40.892200	129.891556
0.752598	39.273832	128.124095
0.753203	37.613546	126.021253
0.753809	35.860922	123.442587
0.754414	33.913291	120.402468
0.755020	31.867854	117.078210
0.755625	29.801154	113.218209
0.756230	27.568001	109.244608
0.756836	25.228535	104.623561
0.757441	22.800376	99.570341
0.758047	20.222165	94.542065
0.758652	17.698628	89.008684
0.759258	15.123455	83.096271
0.759863	12.579264	77.124753
0.760469	9.892919	70.819209
0.761074	7.258211	64.178555
0.761680	4.435786	57.306632
0.762285	1.637662	50.354185
0.762891	-1.113078	43.162878
0.763496	-3.835873	35.803473
0.764102	-6.658297	28.319893
0.764707	-9.426654	20.934460
0.765312	-12.117859	13.182738
0.765918	-14.685742	5.654151
0.766523	-17.291291	-1.758394
0.767129	-19.814827	-9.426339
0.767734	-22.249062	-17.069340
0.768340	-24.624369	-24.773616
0.768945	-26.961404	-32.051141
0.769551	-29.188483	-39.572407
0.770156	-31.289810	-46.766426
0.770762	-33.431231	-53.950413
0.771367	-35.335122	-61.089123
0.771973	-37.180086	-67.799727
0.772578	-38.892009	-74.449328
0.773184	-40.470282	-80.552341
0.773789	-41.784295	-86.672978
0.774395	-43.036951	-92.263567
0.775000	-44.152920	-97.481359
0.775605	-45.086033	-102.850980
0.776211	-45.886104	-107.511612
0.776816	-46.593837	-111.879699
0.777422	-47.061001	-115.850861
0.778027	-47.447975	-119.711674
0.778633	-47.844063	-122.957035
0.779238	-47.919392	-125.888434
0.779844	-47.864717	-128.394980
0.780449	-47.581017	-130.345722
0.781055	-47.206192	-131.888149
0.781660	-46.640614	-132.833018
0.782266	-45.858767	-133.722578
0.782871	-45.026498	-133.792257
0.783477	-44.049038	-133.569121
0.784082	-42.858954	-132.964242
0.784687	-41.551017	-131.860494
0.785293	-40.215741	-130.283634
0.785898	-38.741350	-128.567687
0.786504	-37.113869	-126.354226
0.787109	-35.426247	-123.705881
0.787715	-33.565488	-120.605843
0.788320	-31.531593	-117.086646
0.788926	-29.358582	-113.182453
0.789531	-27.195290	-108.861541
0.790137	-24.886200	-104.375243
0.790742	-22.484162	-99.454332
0.791348	-20.008011	-93.906852
0.791953	-17.573169	-88.341750
0.792559	-14.970050	-82.648948
0.793164	-12.349315	-76.516381
0.793770	-9.825778	-70.162848
0.794375	-7.078684	-63.576148
0.794980	-4.359534	-56.767669
0.795586	-1.480005	-49.733884
0.796191	1.213630	-42.590837
0.796797	3.949790	-35.409018
0.797402	6.727867	-27.950924
0.798008	9.377155	-20.405799
0.798613	12.068360	-12.924388
0.799219	14.754705	-5.421829
0.799824	17.233287	2.317421
0.800430	19.737383	9.653238
0.801035	22.151571	17.101843
0.801641	24.512298	24.627447
0.802246	26.950785	32.087440
0.802852	29.138376	39.461214
0.803457	31.291948	46.614564
0.804063	33.325843	53.752189
0.804668	35.379785	60.854297
0.805273	37.191337	67.621295
0.805879	38.883819	74.033933
0.806484	40.454195	80.145080
0.807090	41.882417	85.767390
0.807695	43.231665	91.395123
0.808301	44.271697	96.977306
0.808906	45.371264	101.825555
0.809512	46.213860	106.466937
0.810117	46.985380	110.841260
0.810723	47.501143	114.919516
0.811328	47.930035	118.456336
0.811934	48.266588	121.940557
0.812539	48.507156	125.072046
0.813145	48.460986	127.438692
0.813750	48.233783	129.291286
0.814355	47.899660	130.784369
0.814961	47.345624	132.157344
0.815566	46.689529	132.677090
0.816172	45.820203	133.012200
0.816777	44.848818	133.086488
0.817383	43.626537	132.311343
0.817988	42.301589	131.169366
0.818594	40.953557	129.881524
0.819199	39.450613	128.367836
0.819805	37.846825	126.295360
0.820410	36.048638	123.783120
0.821016	34.204889	120.767672
0.821621	32.085337	117.387020
0.822227	29.988263	113.593988
0.822832	27.819504	109.559654
0.823438	25.401064	105.212986
0.824043	22.994774	100.113133
0.824648	20.499790	94.964206
0.825254	17.969571	89.645556
0.825859	15.310564	83.825054
0.826465	12.683145	77.786026
0.827070	10.063017	71.502172
0.827676	7.332932	64.877786
0.828281	4.652662	58.086387
0.828887	1.860005	51.058838
0.829492	-0.895594	43.986283
0.830098	-3.679139	36.678663
0.830703	-6.483945	29.043253
0.831309	-9.183048	21.478336
0.831914	-11.985425	13.976862
0.832520	-14.612235	6.191791
0.833125	-17.102967	-1.293416
0.833730	-19.646551	-8.573110
0.834336	-22.131207	-16.230481
0.834941	-24.477963	-23.963495
0.835547	-26.767006	-31.345675
0.836152	-29.022637	-38.885649
0.836758	-31.179853	-46.088886
0.837363	-33.272675	-53.139480
0.837969	-35.170491	-60.324823
0.838574	-37.034895	-67.070944
0.839180	-38.769902	-73.954525
0.839785	-40.373690	-80.105257
0.840391	-41.755742	-86.035293
0.840996	-43.039381	-91.914358
0.841602	-44.078198	-97.032647
0.842207	-45.095145	-102.165035
0.842812	-45.936527	-107.027925
0.843418	-46.526405	-111.569262
0.844023	-47.119928	-115.501923
0.844629	-47.529987	-119.266759
0.845234	-47.786958	-122.564718
0.845840	-47.833128	-125.613785
0.846445	-47.793640	-128.116264
0.847051	-47.615037	-130.224800
0.847656	-47.169743	-131.916617
0.848262	-46.621174	-132.860402
0.848867	-45.915264	-133.483446
0.849473	-45.052013	-134.000209
0.850078	-44.027776	-133.779514
0.850684	-42.964051	-133.049376
0.851289	-41.620271	-132.111285
0.851895	-40.256444	-130.538220
0.852500	-38.771725	-128.770759
0.853105	-37.153356	-126.612879
0.853711	-35.456622	-124.081118
0.854316	-33.604368	-121.071906
0.854922	-31.668887	-117.558403
0.855527	-29.540830	-113.705723
0.856133	-27.312537	-109.515222
0.856738	-25.001016	-104.937826
0.857344	-22.665803	-99.939374
0.857949	-20.144697	-94.901608
0.858555	-17.734155	-89.129638
0.859160	-15.133467	-83.172218
0.859766	-12.538246	-77.157591
0.860371	-9.809376	-70.873466
0.860977	-7.287662	-64.438867
0.861582	-4.494398	-57.528986
0.862187	-1.784360	-50.615310
0.862793	1.025307	-43.381436
0.863398	3.807029	-36.178741
0.864004	6.479401	-28.839128
0.864609	9.164531	-21.500871
0.865215	11.855129	-13.775990
0.865820	14.432733	-6.143563
0.866426	17.047393	1.126642
0.867031	19.514433	8.801907
0.867637	21.988762	16.274371
0.868242	24.271730	23.738159
0.868848	26.617878	31.161820
0.869453	28.888088	38.643231
0.870059	31.014323	45.886866
0.870664	33.079200	53.007681
0.871270	35.087580	60.073187
0.871875	36.940441	66.862146
0.872480	38.617736	73.328738
0.873086	40.239142	79.273686
0.873691	41.655821	85.314341
0.874297	42.980769	90.955087
0.874902	44.115571	96.078257
0.875508	45.189623	101.217694
0.876113	45.980582	105.935533
0.876719	46.721727	110.328293
0.877324	47.237490	114.373200
0.877930	47.672457	118.023621
0.878535	48.078872	121.497540
0.879141	48.245933	124.493737
0.879746	48.321870	126.981034
0.880352	48.099526	129.044292
0.880957	47.745964	130.615187
0.881563	47.208938	131.751470
0.882168	46.643967	132.648622
0.882773	45.681087	133.015182
0.883379	44.726104	132.667058
0.883984	43.549993	132.220516
0.884590	42.286402	131.275376
0.885195	40.955987	130.005428
0.885801	39.408696	128.406336
0.886406	37.842572	126.449088
0.887012	36.170745	124.029030
0.887617	34.225544	121.021987
0.888223	32.172209	117.690138
0.888828	30.126772	114.044055
0.889434	27.863851	110.013788
0.890039	25.562658	105.497938
0.890645	23.182490	100.810194
0.891250	20.628579	95.622768
0.891855	18.152428	89.935930
0.892461	15.574217	84.403634
0.893066	12.955303	78.471428
0.893672	10.281108	72.179712
0.894277	7.594156	65.549632
0.894883	4.867108	58.814085
0.895488	2.070806	51.801990
0.896094	-0.586987	44.725368
0.896699	-3.414271	37.387654
0.897305	-6.209358	29.972668
0.897910	-8.926685	22.396906
0.898516	-11.596628	14.670127
0.899121	-14.247131	7.313162
0.899727	-16.876371	-0.307878
0.900332	-19.296633	-7.982330
0.900937	-21.745448	-15.323840
0.901543	-24.185757	-23.074478
0.902148	-26.389751	-30.466418
0.902754	-28.626549	-37.993378
0.903359	-30.842086	-45.294491
0.903965	-32.852896	-52.268899
0.904570	-34.924455	-59.588177
0.905176	-36.838674	-66.372798
0.905781	-38.514754	-73.101025
0.906387	-40.154384	-79.406569
0.906992	-41.479940	-85.507685
0.907598	-42.786662	-90.998499
0.908203	-43.942119	-96.453525
0.908809	-44.799295	-101.793052
0.909414	-45.707501	-106.562404
0.910020	-46.349016	-111.043551
0.910625	-47.035486	-115.020135
0.911230	-47.349561	-118.893149
0.911836	-47.653309	-122.249400
0.912441	-47.850137	-125.278946
0.913047	-47.753546	-127.917530
0.913652	-47.543960	-129.997055
0.914258	-47.220772	-131.645493
0.914863	-46.604772	-132.732702
0.915469	-45.871525	-133.579153
0.916074	-45.089678	-133.695737
0.916680	-44.131050	-133.795239
0.917285	-43.084335	-133.233469
0.917891	-41.756957	-132.224344
0.918496	-40.457525	-130.691948
0.919102	-38.961263	-128.918793
0.919707	-37.369017	-126.895390
0.920312	-35.789529	-124.350073
0.920918	-33.906900	-121.378006
0.921523	-31.941045	-117.919541
0.922129	-29.856120	-114.127593
0.922734	-27.670959	-109.777671
0.923340	-25.365514	-105.445642
0.923945	-22.923989	-100.573534
0.924551	-20.533494	-95.161617
0.925156	-18.135102	-89.687070
0.925762	-15.574508	-83.931367
0.926367	-12.990830	-77.873360
0.926973	-10.443601	-71.590861
0.927578	-7.642439	-65.123456
0.928184	-5.042359	-58.342360
0.928789	-2.238159	-51.359276
0.929395	0.511973	-44.216771
0.930000	3.328322	-37.005671
0.930605	5.986115	-29.603428
0.931211	8.671853	-22.102496
0.931816	11.386750	-14.710285
0.932422	14.020243	-7.114189
0.933027	16.543779	0.621537
0.933633	19.060633	7.952203
0.934238	21.527065	15.403519
0.934844	23.955225	22.934003
0.935449	26.269175	30.366883
0.936055	28.522376	37.805456
0.936660	30.640105	45.024961
0.937266	32.791247	52.215998
0.937871	34.794767	59.252222
0.938477	36.613609	66.109233
0.939082	38.375346	72.672345
0.939688	39.987031	78.802743
0.940293	41.407356	84.568206
0.940898	42.816138	90.207326
0.941504	43.895657	95.854850
0.942109	45.055974	100.759223
0.942715	45.877308	105.463505
0.943320	46.603872	109.880395
0.943926	47.173096	113.981967
0.944531	47.632362	117.676310
0.945137	48.091629	121.205810
0.945742	48.265980	124.386372
0.946348	48.344955	126.840049
0.946953	48.183968	128.884599
0.947559	47.809144	130.492910
0.948164	47.321932	131.835790
0.948770	46.747241	132.511161
0.949375	45.958712	133.050428
0.949980	44.885875	133.142611
0.950586	43.822758	132.439042
0.951191	42.563420	131.480346
0.951797	41.226930	130.207416
0.952402	39.703331	128.727618
0.953008	38.155432	126.738920
0.953613	36.426500	124.358446
0.954219	34.519572	121.476663
0.954824	32.583483	118.198767
0.955430	30.514961	114.495477
0.956035	28.289705	110.587759
0.956641	25.918650	106.257629
0.957246	23.574325	101.228268
0.957852	21.092098	96.336639
0.958457	18.625667	90.926619
0.959063	16.008576	85.091477
0.959668	13.435225	79.192891
0.960273	10.738552	72.961364
0.960879	8.071040	66.428076
0.961484	5.419322	59.692528
0.962090	2.560448	52.739268
0.962695	-0.126505	45.646379
0.963301	-2.976874	38.351501
0.963906	-5.715464	30.882562
0.964512	-8.467418	23.295955
0.965117	-11.230308	15.662172
0.965723	-13.880811	7.866799
0.966328	-16.379440	0.562974
0.966934	-18.930921	-6.995707
0.967539	-21.361511	-14.549237
0.968145	-23.761725	-22.104394
0.968750	-26.113341	-29.669854
0.969355	-28.452198	-37.082670
0.969961	-30.561423	-44.557032
0.970566	-32.642095	-51.457694
0.971172	-34.566641	-58.699702
0.971777	-36.471747	-65.531770
0.972383	-38.287551	-72.397457
0.972988	-39.891946	-78.656367
0.973594	-41.461107	-84.754501
0.974199	-42.566749	-90.665287
0.974805	-43.835200	-95.646659
0.975410	-44.846072	-100.998657
0.976016	-45.658901	-105.953730
0.976621	-46.377568	-110.550376
0.977227	-47.003289	-114.609923
0.977832	-47.404236	-118.441456
0.978437	-47.706769	-121.852474
0.979043	-47.801538	-124.816950
0.979648	-47.918177	-127.583505
0.980254	-47.747471	-129.735420
0.980859	-47.367786	-131.604824
0.981465	-46.948614	-132.678748
0.982070	-46.160085	-133.565055
0.982676	-45.319919	-133.883084
0.983281	-44.434190	-133.711462
0.983887	-43.371681	-133.362796
0.984492	-42.075285	-132.490046
0.985098	-40.781927	-131.059592
0.985703	-39.374360	-129.209439
0.986309	-37.722580	-127.195254
0.986914	-36.047715	-124.680303
0.987520	-34.240415	-121.817499
0.988125	-32.314655	-118.422748
0.988730	-30.258890	-114.721627
0.989336	-27.992932	-110.437045
0.989941	-25.721506	-105.854227
0.990547	-23.397836	-101.295539
0.991152	-20.966639	-95.929984
0.991758	-18.518432	-90.338311
0.992363	-15.963913	-84.593453
0.992969	-13.360187	-78.604040
0.993574	-10.820248	-72.348655
0.994180	-7.988104	-65.787711
0.994785	-5.287179	-59.145431
0.995391	-2.620882	-52.183224
0.995996	0.217945	-45.057799
0.996602	2.895178	-37.808742
0.997207	5.643487	-30.531217
0.997812	8.369320	-23.040316
0.998418	11.112770	-15.459403
0.999023	13.746263	-8.099184
0.999629	16.331764	-0.381624
1.000234	18.816420	7.289574
1.000840	21.349676	14.599635
1.001445	23.763864	22.088637
1.002051	26.083281	29.514468
1.002656	28.227133	36.946534
1.003262	30.513746	44.285333
1.003867	32.585913	51.466338
1.004473	34.563919	58.556788
1.005078	36.488465	65.402140
1.005684	38.238659	71.917535
1.006289	39.886187	78.136047
1.006895	41.280389	84.062288
1.007500	42.749313	89.627933
1.008105	43.919957	95.309348
1.008711	44.950270	100.360127
1.009316	45.895533	104.944301
1.009922	46.628172	109.397522
1.010527	47.215013	113.643875
1.011133	47.720449	117.343098
1.011738	48.125649	120.850637
1.012344	48.344347	124.043128
1.012949	48.408742	126.627487
1.013555	48.254438	128.705115
1.014160	48.007795	130.325084
1.014766	47.542453	131.821692
1.015371	46.871778	132.590601
1.015977	46.123951	132.882602
1.016582	45.193875	133.121463
1.017187	44.001969	132.573791
1.017793	42.760856	131.535655
1.018398	41.378804	130.337014
1.019004	39.966984	128.924455
1.019609	38.362588	126.934672
1.020215	36.715060	124.656683
1.020820	34.833647	121.800928
1.021426	32.783350	118.511103
1.022031	30.715435	114.926565
1.022637	28.526628	110.901721
1.023242	26.232725	106.723149
1.023848	23.800921	101.823658
1.024453	21.314442	96.683949
1.025059	18.803663	91.477816
1.025664	16.230919	85.798570
1.026270	13.614436	79.765777
1.026875	11.014355	73.615317
1.027480	8.316468	67.116461
1.028086	5.453341	60.367086
1.028691	2.767604	53.448259
1.029297	0.035089	46.370823
1.029902	-2.761213	39.116886
1.030508	-5.498588	31.646591
1.031113	-8.301572	24.037209
1.031719	-11.034694	16.555798
1.032324	-13.685805	8.780759
1.032930	-16.301073	1.267627
1.033535	-18.813067	-6.078493
1.034141	-21.280714	-13.709022
1.034746	-23.657236	-21.342805
1.035352	-26.037404	-28.861360
1.035957	-28.240182	-36.259536
1.036563	-30.449036	-43.762095
1.037168	-32.619010	-50.767140
1.037773	-34.533836	-57.978782
1.038379	-36.407352	-64.836335
1.038984	-38.166659	-71.655389
1.039590	-39.815402	-78.107882
1.040195	-41.374843	-84.006197
1.040801	-42.610489	-90.105957
1.041406	-43.747113	-95.245394
1.042012	-44.767098	-100.421976
1.042617	-45.662546	-105.501223
1.043223	-46.338081	-110.098953
1.043828	-46.964409	-114.182089
1.044434	-47.437041	-118.051036
1.045039	-47.646626	-121.571046
1.045645	-47.811865	-124.570769
1.046250	-47.837988	-127.364436
1.046855	-47.755976	-129.552411
1.047461	-47.396338	-131.468991
1.048066	-46.953474	-132.611509
1.048672	-46.274294	-133.378521
1.049277	-45.420763	-133.946256
1.049883	-44.414143	-133.855971
1.050488	-43.423925	-133.315620
1.051094	-42.145755	-132.477574
1.051699	-40.901604	-131.175092
1.052305	-39.395015	-129.330089
1.052910	-37.817957	-127.373654
1.053516	-36.137016	-124.898287
1.054121	-34.465189	-122.107873
1.054727	-32.399097	-118.683028
1.055332	-30.401651	-115.031251
1.055937	-28.194013	-110.915309
1.056543	-25.938382	-106.400814
1.057148	-23.579477	-101.565037
1.057754	-21.138560	-96.621894
1.058359	-18.652081	-90.929905
1.058965	-16.177144	-85.051111
1.059570	-13.550333	-79.194278
1.060176	-10.948430	-72.958685
1.060781	-8.248720	-66.531677
1.061387	-5.567842	-59.782303
1.061992	-2.821963	-52.892214
1.062598	-0.122252	-45.777635
1.063203	2.646105	-38.533729
1.063809	5.424789	-31.241834
1.064414	8.098984	-23.857757
1.065020	10.805984	-16.192252
1.065625	13.481395	-8.713552
1.066230	16.117925	-1.209367
1.066836	18.574029	6.525003
1.067441	20.994899	13.890644
1.068047	23.307634	21.356601
1.068652	25.762524	28.771857
1.069258	28.017547	36.215040
1.069863	30.222756	43.551670
1.070469	32.265156	50.666250
1.071074	34.363445	57.751548
1.071680	36.261869	64.694505
1.072285	38.011456	71.247315
1.072891	39.646834	77.380152
1.073496	41.158283	83.515159
1.074102	42.502063	89.007329
1.074707	43.799066	94.487027
1.075312	44.834238	99.854751
1.075918	45.702957	104.488270
1.076523	46.523683	108.914920
1.077129	47.171881	113.163713
1.077734	47.673672	116.980876
1.078340	47.988355	120.427411
1.078945	48.306075	123.725641
1.079551	48.271448	126.381306
1.080156	48.234390	128.524817
1.080762	47.940970	130.220972
1.081367	47.468339	131.587711
1.081973	46.874815	132.630185
1.082578	46.081426	132.908630
1.083184	45.179903	132.996203
1.083789	44.067579	132.778219
1.084395	42.766931	131.789428
1.085000	41.495443	130.554456
1.085605	39.946329	129.039412
1.086211	38.442778	127.261648
1.086816	36.786137	124.965494
1.087422	34.946034	122.169658
1.088027	33.012983	118.982046
1.088633	30.910441	115.411336
1.089238	28.735607	111.350432
1.089844	26.404039	107.203582
1.090449	24.041489	102.529124
1.091055	21.688659	97.292353
1.091660	19.069138	91.970720
1.092266	16.526770	86.513796
1.092871	13.852574	80.511912
1.093477	11.200249	74.302075
1.094082	8.602598	67.904078
1.094688	5.800829	61.136267
1.095293	3.130886	54.223404
1.095898	0.354632	47.142715
1.096504	-2.503027	39.849464
1.097109	-5.210635	32.482197
1.097715	-7.971702	24.811541
1.098320	-10.668375	17.363207
1.098926	-13.433087	9.767111
1.099531	-15.986998	1.998308
1.100137	-18.461935	-5.337781
1.100742	-20.942339	-12.676309
1.101348	-23.389938	-20.513435
1.101953	-25.759778	-28.102483
1.102559	-27.986249	-35.428539
1.103164	-30.175663	-42.909950
1.103770	-32.298860	-49.958918
1.104375	-34.256210	-57.170560
1.104980	-36.195336	-64.062275
1.105586	-38.065207	-70.864519
1.106191	-39.586376	-77.451761
1.106797	-41.129415	-83.332724
1.107402	-42.391183	-89.233750
1.108008	-43.552714	-94.771198
1.108613	-44.581812	-99.900874
1.109219	-45.479690	-104.837239
1.109824	-46.237237	-109.564024
1.110430	-46.824078	-113.758592
1.111035	-47.345916	-117.577924
1.111641	-47.679431	-121.145923
1.112246	-47.827053	-124.193363
1.112852	-47.837380	-127.030682
1.113457	-47.792425	-129.274237
1.114062	-47.401806	-131.186208
1.114668	-46.929782	-132.507669
1.115273	-46.280369	-133.195241
1.115879	-45.567777	-133.649916
1.116484	-44.551437	-134.006988
1.117090	-43.538134	-133.406176
1.117695	-42.341976	-132.481912
1.118301	-41.046188	-131.239619
1.118906	-39.625863	-129.509845
1.119512	-37.981373	-127.585674
1.120117	-36.381837	-125.166429
1.120723	-34.648652	-122.456268
1.121328	-32.673077	-119.077243
1.121934	-30.618527	-115.367445
1.122539	-28.515378	-111.320640
1.123145	-26.212970	-107.014911
1.123750	-23.920889	-102.104846
1.124355	-21.475112	-97.131337
1.124961	-18.982558	-91.785032
1.125566	-16.496687	-85.729465
1.126172	-13.886278	-79.907878
1.126777	-11.276478	-73.698584
1.127383	-8.678827	-67.343966
1.127988	-5.978509	-60.638514
1.128594	-3.188282	-53.714264
1.129199	-0.415673	-46.618663
1.129805	2.321702	-39.401328
1.130410	5.060292	-32.056021
1.131016	7.722945	-24.655676
1.131621	10.485227	-17.211952
1.132227	13.117505	-9.381061
1.132832	15.702398	-2.098927
1.133438	18.267852	5.449994
1.134043	20.770126	13.081337
1.134648	23.112628	20.544583
1.135254	25.475178	27.984783
1.135859	27.766652	35.445859
1.136465	29.910503	42.837257
1.137070	32.064682	49.962682
1.137676	34.139280	57.094071
1.138281	36.027376	64.034046
1.138887	37.733223	70.617763
1.139492	39.513185	76.761175
1.140098	40.969959	82.784749
1.140703	42.381171	88.725630
1.141309	43.594947	93.963214
1.141914	44.676897	99.069032
1.142520	45.603327	104.042812
1.143125	46.403399	108.499015
1.143730	47.017577	112.712562
1.144336	47.549743	116.560090
1.144941	47.993215	120.143544
1.145547	48.205231	123.415204
1.146152	48.297570	126.044841
1.146758	48.251400	128.339097
1.147363	48.003542	130.194131
1.147969	47.575258	131.442117
1.148574	46.974445	132.434162
1.149180	46.170728	133.137730
1.149785	45.221213	133.010302
1.150391	44.156273	132.559150
1.150996	42.940067	131.928515
1.151602	41.649139	130.781387
1.152207	40.238534	129.381300
1.152813	38.779938	127.607332
1.153418	36.979929	125.277287
1.154023	35.128890	122.551943
1.154629	33.252336	119.357283
1.155234	31.154047	115.876857
1.155840	28.935473	111.964800
1.156445	26.671337	107.616505
1.157051	24.369537	103.008472
1.157656	21.835065	98.075903
1.158262	19.349801	92.443019
1.158867	16.771590	87.001278
1.159473	14.143565	81.206804
1.160078	11.528296	75.036009
1.160684	8.853494	68.587854
1.161289	6.163504	61.858814
1.161895	3.400614	55.027830
1.162500	0.616462	47.927078
1.163105	-2.125773	40.738753
1.163711	-4.895345	33.340848
1.164316	-7.741461	25.864589
1.164922	-10.412619	18.125609
1.165527	-13.046720	10.700050
1.166133	-15.753720	3.197763
1.166738	-18.255994	-4.592459
1.167344	-20.690228	-11.990635
1.167949	-23.132968	-19.553112
1.168555	-25.470003	-27.286127
1.169160	-27.817365	-34.597543
1.169766	-29.970330	-42.058348
1.170371	-32.029739	-49.164523
1.170977	-34.120739	-56.331158
1.171582	-36.038602	-63.457938
1.172187	-37.891464	-70.026202
1.172793	-39.548711	-76.674989
1.173398	-40.970251	-82.830059
1.174004	-42.265431	-88.462671
1.174609	-43.512012	-94.005000
1.175215	-44.491902	-99.471413
1.175820	-45.414080	-104.411031
1.176426	-46.189245	-108.992494
1.177031	-46.833797	-113.251318
1.177637	-47.360496	-117.138973
1.178242	-47.645411	-120.834401
1.178848	-47.976497	-123.892686
1.179453	-47.909672	-126.750610
1.180059	-47.810650	-129.097193
1.180664	-47.555502	-130.884175
1.181270	-47.045813	-132.314357
1.181875	-46.435888	-133.224251
1.182480	-45.636424	-133.491309
1.183086	-44.793828	-133.884710
1.183691	-43.690008	-133.577255
1.184297	-42.488382	-132.538577
1.184902	-41.198669	-131.408259
1.185508	-39.774092	-129.663030
1.186113	-38.337365	-127.845411
1.186719	-36.636985	-125.458430
1.187324	-34.854593	-122.629788
1.187930	-32.924580	-119.366533
1.188535	-30.849376	-115.756238
1.189141	-28.758376	-111.577124
1.189746	-26.554990	-107.382827
1.190352	-24.152345	-102.692915
1.190957	-21.782505	-97.332782
1.191563	-19.296633	-92.133698
1.192168	-16.793752	-86.461230
1.192773	-14.191241	-80.443078
1.193379	-11.674995	-74.319459
1.193984	-8.971640	-67.950743
1.194590	-6.278005	-61.261829
1.195195	-3.462263	-54.359540
1.195801	-0.759515	-47.278851
1.196406	2.072021	-40.136888
1.197012	4.784489	-32.819508
1.197617	7.485414	-25.311255
1.198223	10.205779	-17.989537
1.198828	12.869039	-10.327557
1.199434	15.450288	-2.597254
1.200039	18.021209	4.739919
1.200645	20.518623	12.147042
1.201250	22.918230	19.803328
1.201855	25.323912	27.195810
1.202461	27.489634	34.672612
1.203066	29.793257	42.003007
1.203672	31.869069	49.214107
1.204277	33.916329	56.350105
1.204883	35.936251	63.280320
1.205488	37.662146	70.011258
1.206094	39.399583	76.198862
1.206699	40.884910	82.136490
1.207305	42.373881	87.889211
1.207910	43.508075	93.623766
1.208516	44.610072	98.702743
1.209121	45.596037	103.414616
1.209727	46.382744	108.092600
1.210332	47.050382	112.391822
1.210937	47.581333	116.222540
1.211543	48.044244	119.857236
1.212148	48.315187	123.226501
1.212754	48.449444	125.977602
1.213359	48.365609	128.206517
1.213965	48.120181	129.975876
1.214570	47.658485	131.535113
1.215176	47.083794	132.432264
1.215781	46.364519	132.930049
1.216387	45.410144	133.329686
1.216992	44.361607	132.869859
1.217598	43.127783	132.020697
1.218203	41.838070	130.918034
1.218809	40.449335	129.632903
1.219414	38.786013	127.761059
1.220020	37.223534	125.620260
1.220625	35.417450	122.896271
1.221230	33.452810	119.747973
1.221836	31.380035	116.235012
1.222441	29.260483	112.352509
1.223047	26.927700	108.343119
1.223652	24.550570	103.530929
1.224258	22.124233	98.413182
1.224863	19.570930	93.364571
1.225469	17.027346	87.735483
1.226074	14.419368	81.824697
1.226680	11.745172	75.815492
1.227285	9.075837	69.287355
1.227891	6.386454	62.672730
1.228496	3.635107	55.749022
1.229102	0.863713	48.689209
1.229707	-1.870625	41.552669
1.230312	-4.679076	34.086712
1.230918	-7.446826	26.545925
1.231523	-10.182986	19.079426
1.232129	-12.876621	11.346140
1.232734	-15.421419	3.799117
1.233340	-18.011780	-3.502267
1.233945	-20.470922	-11.115987
1.234551	-22.892399	-18.796675
1.235156	-25.298689	-26.465162
1.235762	-27.551890	-33.764106
1.236367	-29.730976	-41.246601
1.236973	-31.891230	-48.376635
1.237578	-33.925733	-55.503686
1.238184	-35.854531	-62.624501
1.238789	-37.717112	-69.363031
1.239395	-39.287488	-76.010463
