LabVIEW Measurement	
Writer_Version	2
Reader_Version	2
Separator	Tab
Decimal_Separator	.
Multi_Headings	No
X_Columns	One
Time_Pref	Absolute
Operator	AlunosGDS-JT
Date	2019/10/09
Time	15:19:08.4651639249999940857
***End_of_Header***	
	
Channels	2		
Samples	2048	2048	
Date	2019/10/09	2019/10/09	
Time	15:38:00.8049490812499859927	15:38:00.8049490812499859927	
Y_Unit_Label	g	Newtons	
X_Dimension	Time	Time	
X0	0.0000000000000000E+0	0.0000000000000000E+0	
Delta_X	0.000605	0.000605	
***End_of_Header***			
X_Value	Acceleration (Trigger)	Force (Trigger)	Comment
0.000000	3.319210	2.662563
0.000605	2.087209	8.899241
0.001211	0.929322	15.261721
0.001816	-0.306324	21.431431
0.002422	-1.511595	27.313478
0.003027	-2.654294	33.537685
0.003633	-3.863817	39.496460
0.004238	-5.024741	45.187365
0.004844	-6.191133	50.830551
0.005449	-7.311962	56.286120
0.006055	-8.420641	61.567897
0.006660	-9.477683	66.567976
0.007266	-10.490378	71.414870
0.007871	-11.468446	76.077941
0.008477	-12.381512	80.505405
0.009082	-13.278783	84.492020
0.009687	-14.047872	88.346869
0.010293	-14.962760	92.054769
0.010898	-15.648015	95.119290
0.011504	-16.325980	98.101931
0.012109	-16.971141	100.953077
0.012715	-17.525176	103.245164
0.013320	-18.087717	105.200243
0.013926	-18.511749	106.846511
0.014531	-18.943678	108.196711
0.015137	-19.263221	109.187129
0.015742	-19.526874	109.748357
0.016348	-19.746180	110.020837
0.016953	-19.989178	109.919437
0.017559	-20.127687	109.477504
0.018164	-20.125865	108.518807
0.018770	-20.119790	107.560111
0.019375	-20.026843	106.098478
0.019980	-19.941186	104.055013
0.020586	-19.706693	101.962473
0.021191	-19.442432	99.550820
0.021797	-19.090085	96.703741
0.022402	-18.783907	93.560323
0.023008	-18.366558	90.102130
0.023613	-17.793082	86.375794
0.024219	-17.236009	82.369386
0.024824	-16.568371	78.131438
0.025430	-15.972418	73.573021
0.026035	-15.168094	68.887718
0.026641	-14.384425	63.801692
0.027246	-13.462854	58.638125
0.027852	-12.676147	53.530410
0.028457	-11.762474	47.943346
0.029062	-10.780154	42.129893
0.029668	-9.783254	36.363345
0.030273	-8.805793	30.460150
0.030879	-7.622392	24.424917
0.031484	-6.534368	18.257918
0.032090	-5.454848	12.105289
0.032695	-4.357104	5.916871
0.033301	-3.251462	-0.378641
0.033906	-2.055911	-6.683372
0.034512	-0.838490	-12.769576
0.035117	0.251965	-18.995680
0.035723	1.477891	-25.374699
0.036328	2.646712	-31.292263
0.036934	3.761466	-37.161025
0.037539	4.880473	-43.037379
0.038145	5.987330	-48.803114
0.038750	7.128814	-54.396413
0.039355	8.263008	-59.733500
0.039961	9.330378	-64.916588
0.040566	10.319988	-69.932664
0.041172	11.426845	-74.707438
0.041777	12.411595	-79.241183
0.042383	13.387233	-83.453374
0.042988	14.317916	-87.526749
0.043594	15.256496	-90.975996
0.044199	16.027408	-94.555925
0.044805	16.815330	-97.720490
0.045410	17.532175	-100.285058
0.046016	18.245982	-102.669598
0.046621	18.934274	-104.814464
0.047227	19.436673	-106.536105
0.047832	19.970054	-107.873292
0.048438	20.353991	-108.914139
0.049043	20.722134	-109.621774
0.049648	21.072051	-109.909437
0.050254	21.292572	-109.760047
0.050859	21.435333	-109.328959
0.051465	21.578095	-108.722996
0.052070	21.592067	-107.491819
0.052676	21.457811	-105.772890
0.053281	21.348461	-104.206603
0.053887	21.153455	-102.024322
0.054492	20.876437	-99.368657
0.055098	20.463948	-96.488229
0.055703	20.138330	-93.348065
0.056309	19.604342	-89.894209
0.056914	19.061241	-86.117173
0.057520	18.476223	-82.033766
0.058125	17.812230	-77.681946
0.058730	17.077768	-73.159588
0.059336	16.325689	-68.259554
0.059941	15.453933	-63.274658
0.060547	14.626524	-58.140101
0.061152	13.726823	-52.365148
0.061758	12.661276	-46.815500
0.062363	11.734845	-41.107514
0.062969	10.602473	-35.182629
0.063574	9.664500	-29.089647
0.064180	8.502361	-22.965757
0.064785	7.325643	-16.807434
0.065391	6.192663	-10.547439
0.065996	5.012907	-4.275515
0.066602	3.773009	2.030029
0.067207	2.567738	8.226310
0.067812	1.375831	14.533480
0.068418	0.184533	20.829264
0.069023	-1.011018	26.674980
0.069629	-2.215682	32.805649
0.070234	-3.464693	38.968852
0.070840	-4.615289	44.683615
0.071445	-5.711211	50.233806
0.072051	-6.920127	55.679072
0.072656	-7.999039	61.020225
0.073262	-9.086456	66.057720
0.073867	-10.096114	70.884550
0.074473	-11.071144	75.586121
0.075078	-12.083839	79.970476
0.075684	-12.993260	84.041411
0.076289	-13.840109	87.893007
0.076895	-14.577001	91.709898
0.077500	-15.471234	94.828102
0.078105	-16.089057	97.761669
0.078711	-16.826557	100.678156
0.079316	-17.423725	102.958585
0.079922	-17.882991	104.986325
0.080527	-18.435812	106.667840
0.081133	-18.861059	108.033765
0.081738	-19.248034	109.054007
0.082344	-19.559679	109.634756
0.082949	-19.832444	109.927299
0.083555	-20.065723	109.938687
0.084160	-20.177502	109.533355
0.084766	-20.243719	108.572219
0.085371	-20.232784	107.573396
0.085977	-20.238251	106.242446
0.086582	-20.088200	104.220399
0.087188	-19.861604	102.140060
0.087793	-19.580941	99.732745
0.088398	-19.354345	96.919014
0.089004	-19.019615	93.778850
0.089609	-18.514179	90.381659
0.090215	-18.017855	86.689214
0.090820	-17.496017	82.687686
0.091426	-16.846604	78.499354
0.092031	-16.127329	73.980792
0.092637	-15.348520	69.349985
0.093242	-14.614665	64.318998
0.093848	-13.682767	59.096868
0.094453	-12.899098	54.013011
0.095059	-11.956873	48.452518
0.095664	-11.031049	42.648283
0.096270	-9.993447	36.865468
0.096875	-8.874440	31.064216
0.097480	-7.912775	24.971233
0.098086	-6.766431	18.839752
0.098691	-5.615834	12.657841
0.099297	-4.585522	6.424687
0.099902	-3.380858	0.193431
0.100508	-2.185307	-6.104250
0.101113	-1.024383	-12.250101
0.101719	0.140793	-18.427945
0.102324	1.366112	-24.776869
0.102930	2.554980	-30.748930
0.103535	3.731699	-36.514122
0.104141	4.867716	-42.475609
0.104746	6.031070	-48.286350
0.105352	7.161619	-53.820545
0.105957	8.259971	-59.186371
0.106563	9.370472	-64.409585
0.107168	10.494339	-69.412918
0.107773	11.495492	-74.240833
0.108379	12.467485	-78.730113
0.108984	13.469852	-83.094676
0.109590	14.441845	-87.162900
0.110195	15.271684	-90.705685
0.110801	16.105168	-94.292663
0.111406	16.944726	-97.480274
0.112012	17.589279	-100.088221
0.112617	18.378416	-102.577687
0.113223	18.996846	-104.669955
0.113828	19.577005	-106.437145
0.114434	20.093376	-107.832081
0.115039	20.521053	-108.916308
0.115645	20.922607	-109.593035
0.116250	21.247010	-109.949835
0.116855	21.397669	-109.876902
0.117461	21.561692	-109.495430
0.118066	21.646742	-108.921730
0.118672	21.668612	-107.665339
0.119277	21.617582	-106.092274
0.119883	21.476036	-104.541171
0.120488	21.242757	-102.301953
0.121094	20.967562	-99.723288
0.121699	20.604279	-96.896814
0.122305	20.213052	-93.811417
0.122910	19.757431	-90.335058
0.123516	19.146898	-86.669996
0.124121	18.606834	-82.628613
0.124727	17.917327	-78.372229
0.125332	17.178005	-73.781006
0.125938	16.422888	-68.909168
0.126543	15.552954	-64.083423
0.127148	14.710965	-58.764501
0.127754	13.721355	-53.079290
0.128359	12.794925	-47.622909
0.128965	11.773117	-41.941493
0.129570	10.710000	-35.917106
0.130176	9.626228	-29.897598
0.130781	8.527876	-23.824137
0.131387	7.323213	-17.627314
0.131992	6.213926	-11.367048
0.132598	5.068189	-5.070181
0.133203	3.788804	1.232923
0.133809	2.579888	7.396940
0.134414	1.420179	13.803342
0.135020	0.188178	19.936179
0.135625	-1.071160	25.870282
0.136230	-2.181055	32.128108
0.136836	-3.522405	38.127552
0.137441	-4.642627	43.850450
0.138047	-5.787756	49.527527
0.138652	-6.915267	55.019968
0.139258	-8.045816	60.294696
0.139863	-9.091316	65.411359
0.140469	-10.143498	70.281569
0.141074	-11.139791	74.985851
0.141680	-12.120896	79.426058
0.142285	-12.999335	83.536306
0.142891	-13.860764	87.464630
0.143496	-14.666910	91.285046
0.144102	-15.435392	94.344144
0.144707	-16.070225	97.459366
0.145313	-16.765807	100.356060
0.145918	-17.432230	102.699932
0.146523	-17.895749	104.695409
0.147129	-18.359268	106.458803
0.147734	-18.858022	107.845605
0.148340	-19.199434	108.867745
0.148945	-19.531734	109.552063
0.149551	-19.781415	109.880666
0.150156	-19.980673	109.921064
0.150762	-20.125865	109.437106
0.151367	-20.185399	108.638915
0.151973	-20.179324	107.692962
0.152578	-20.101565	106.284199
0.153184	-19.992216	104.295771
0.153789	-19.791742	102.288907
0.154395	-19.495892	99.940426
0.155000	-19.205509	97.204508
0.155605	-18.835544	94.144055
0.156211	-18.377493	90.779128
0.156816	-17.830747	87.139823
0.157422	-17.255448	83.172186
0.158027	-16.629728	78.970569
0.158633	-15.963913	74.554763
0.159238	-15.234311	69.927209
0.159844	-14.431202	64.795364
0.160449	-13.569773	59.665687
0.161055	-12.745402	54.637411
0.161660	-11.841448	48.959521
0.162266	-10.805061	43.242588
0.162871	-9.774749	37.522131
0.163477	-8.760839	31.666925
0.164082	-7.751181	25.589940
0.164687	-6.597547	19.447613
0.165293	-5.479755	13.299592
0.165898	-4.368039	7.096534
0.166504	-3.238097	0.859313
0.167109	-2.054696	-5.416136
0.167715	-0.908959	-11.545720
0.168320	0.270797	-17.832285
0.168926	1.410459	-24.200458
0.169531	2.604795	-30.017978
0.170137	3.772401	-35.985971
0.170742	4.918745	-41.955050
0.171348	6.034107	-47.683912
0.171953	7.159796	-53.273144
0.172559	8.219876	-58.710818
0.173164	9.287246	-63.967381
0.173770	10.331530	-68.989421
0.174375	11.375815	-73.828724
0.174980	12.365425	-78.412355
0.175586	13.300361	-82.733810
0.176191	14.223754	-86.805558
0.176797	15.119810	-90.398230
0.177402	15.908339	-94.140020
0.178008	16.737571	-97.188815
0.178613	17.489042	-99.808692
0.179219	18.232617	-102.375699
0.179824	18.804878	-104.568826
0.180430	19.365596	-106.333033
0.181035	19.907482	-107.765384
0.181641	20.343056	-108.857745
0.182246	20.679001	-109.649429
0.182852	20.941439	-110.044728
0.183457	21.185653	-110.003517
0.184062	21.322947	-109.756252
0.184668	21.463278	-109.104739
0.185273	21.462063	-107.837503
0.185879	21.355751	-106.506282
0.186484	21.298039	-104.854591
0.187090	21.098173	-102.573620
0.187695	20.760406	-100.104489
0.188301	20.434181	-97.348508
0.188906	19.995569	-94.336856
0.189512	19.606772	-90.880289
0.190117	19.056381	-87.181608
0.190723	18.501737	-83.134260
0.191328	17.879662	-78.850221
0.191934	17.178612	-74.339793
0.192539	16.352418	-69.589691
0.193145	15.566927	-64.673932
0.193750	14.705498	-59.249001
0.194355	13.729860	-53.853351
0.194961	12.839879	-48.439807
0.195566	11.833259	-42.557217
0.196172	10.791404	-36.625012
0.196777	9.787214	-30.600082
0.197383	8.676713	-24.505744
0.197988	7.579576	-18.331696
0.198594	6.391922	-12.088240
0.199199	5.221278	-5.853460
0.199805	4.051242	0.449915
0.200410	2.856298	6.727533
0.201016	1.668037	13.036602
0.201621	0.458513	19.115485
0.202227	-0.714561	25.207654
0.202832	-1.922262	31.521874
0.203437	-3.122065	37.432660
0.204043	-4.270839	43.156913
0.204648	-5.390454	48.870592
0.205254	-6.597547	54.385265
0.205859	-7.695292	59.692800
0.206465	-8.753549	64.778554
0.207070	-9.800871	69.688077
0.207676	-10.754639	74.442518
0.208281	-11.729062	78.931798
0.208887	-12.622080	83.040419
0.209492	-13.484116	87.073668
0.210098	-14.357087	90.746050
0.210703	-15.179636	93.854493
0.211309	-15.819329	97.138896
0.211914	-16.537996	100.012546
0.212520	-17.184979	102.307886
0.213125	-17.685555	104.403137
0.213730	-18.153327	106.161379
0.214336	-18.613808	107.600508
0.214941	-18.963726	108.693954
0.215547	-19.329438	109.411892
0.216152	-19.620428	109.767065
0.216758	-19.816650	109.784417
0.217363	-20.035348	109.346008
0.217969	-20.100350	108.661419
0.218574	-20.147735	107.786771
0.219180	-20.047498	106.203132
0.219785	-19.904129	104.376024
0.220391	-19.815435	102.533190
0.220996	-19.539632	100.136449
0.221602	-19.271119	97.407039
0.222207	-18.921809	94.339264
0.222812	-18.499599	91.030189
0.223418	-18.068885	87.348046
0.224023	-17.502699	83.437346
0.224629	-16.830202	79.281006
0.225234	-16.152237	74.896109
0.225840	-15.439037	70.186947
0.226445	-14.669948	65.065675
0.227051	-13.941560	60.153982
0.227656	-13.024242	55.016714
0.228262	-12.095382	49.300595
0.228867	-11.124604	43.696722
0.229473	-10.110086	38.039166
0.230078	-9.130803	32.124041
0.230684	-8.031844	26.132189
0.231289	-6.924380	19.990133
0.231895	-5.779251	13.856482
0.232500	-4.723423	7.610857
0.233105	-3.583762	1.414034
0.233711	-2.374846	-4.900186
0.234316	-1.280746	-11.004555
0.234922	-0.119215	-17.346972
0.235527	1.118253	-23.602629
0.236133	2.260345	-29.441296
0.236738	3.370847	-35.487102
0.237344	4.598595	-41.455909
0.237949	5.689050	-47.171215
0.238555	6.820814	-52.791356
0.239160	7.939820	-58.239333
0.239766	8.973170	-63.505114
0.240371	10.143814	-68.521460
0.240977	11.248241	-73.375403
0.241582	12.166167	-77.987232
0.242187	13.189189	-82.416052
0.242793	14.105292	-86.324583
0.243398	14.990413	-90.117887
0.244004	15.811140	-93.821990
0.244609	16.615464	-96.759625
0.245215	17.409461	-99.519673
0.245820	18.115370	-102.195130
0.246426	18.794550	-104.383919
0.247031	19.366204	-106.198284
0.247637	19.909912	-107.659103
0.248242	20.371001	-108.849340
0.248848	20.789566	-109.655664
0.249453	21.061724	-110.025207
0.250059	21.304722	-110.037137
0.250664	21.517345	-109.888289
0.251270	21.658892	-109.197735
0.251875	21.721464	-107.952460
0.252480	21.635807	-106.790691
0.253086	21.493653	-105.086945
0.253691	21.347246	-102.825766
0.254297	21.127333	-100.418180
0.254902	20.753116	-97.666537
0.255508	20.357029	-94.661121
0.256113	19.886827	-91.251187
0.256719	19.403261	-87.584499
0.257324	18.818243	-83.594359
0.257930	18.165185	-79.384879
0.258535	17.520025	-74.894514
0.259141	16.740608	-70.138176
0.259746	15.885254	-65.266068
0.260352	15.078500	-59.819447
0.260957	14.074310	-54.443860
0.261562	13.168534	-49.073967
0.262168	12.205046	-43.179448
0.262773	11.186277	-37.275711
0.263379	10.127412	-31.313411
0.263984	9.057612	-25.215549
0.264590	7.926456	-19.037704
0.265195	6.765532	-12.769847
0.265801	5.547503	-6.524222
0.266406	4.342232	-0.255551
0.267012	3.186168	6.035081
0.267617	1.914072	12.429825
0.268223	0.731886	18.403241
0.268828	-0.447263	24.566716
0.269434	-1.677441	30.885544
0.270039	-2.871777	36.685712
0.270645	-4.043029	42.495369
0.271250	-5.211850	48.226942
0.271855	-6.395859	53.728059
0.272461	-7.486921	59.040474
0.273066	-8.620507	64.192383
0.273672	-9.705494	69.113293
0.274277	-10.662300	73.891864
0.274883	-11.670742	78.319870
0.275488	-12.571658	82.518505
0.276094	-13.459816	86.604081
0.276699	-14.303020	90.236879
0.277305	-15.072717	93.413916
0.277910	-15.861854	96.735463
0.278516	-16.542249	99.656559
0.279121	-17.153997	102.006938
0.279727	-17.737800	104.071822
0.280332	-18.189169	105.924416
0.280938	-18.698858	107.404757
0.281543	-19.122890	108.514469
0.282148	-19.444862	109.263315
0.282754	-19.691505	109.669460
0.283359	-19.907774	109.741037
0.283965	-20.153810	109.318082
0.284570	-20.224887	108.633764
0.285176	-20.211522	107.807648
0.285781	-20.229746	106.275523
0.286387	-20.084555	104.485287
0.286992	-19.928429	102.663873
0.287598	-19.781415	100.274181
0.288203	-19.392618	97.629090
0.288809	-19.128965	94.540710
0.289414	-18.675165	91.292366
0.290020	-18.173982	87.701593
0.290625	-17.639386	83.814480
0.291230	-17.070770	79.653532
0.291836	-16.417105	75.318250
0.292441	-15.656520	70.678495
0.293047	-14.863131	65.567798
0.293652	-13.995020	60.729309
0.294258	-13.216211	55.526971
0.294863	-12.328052	49.863179
0.295469	-11.361527	44.350132
0.296074	-10.296587	38.608527
0.296680	-9.261415	32.707773
0.297285	-8.187970	26.709955
0.297891	-7.064711	20.632698
0.298496	-5.954209	14.443467
0.299102	-4.800575	8.245017
0.299707	-3.691289	2.007526
0.300312	-2.498167	-4.221832
0.300918	-1.333599	-10.405641
0.301523	-0.117393	-16.769205
0.302129	1.072084	-22.967384
0.302734	2.285860	-28.816625
0.303340	3.438886	-34.858364
0.303945	4.611353	-40.872720
0.304551	5.775314	-46.571759
0.305156	6.928948	-52.180512
0.305762	7.985383	-57.713080
0.306367	9.177289	-62.978861
0.306973	10.128019	-68.098777
0.307578	11.272541	-72.891446
0.308184	12.309536	-77.582714
0.308789	13.325876	-81.984150
0.309395	14.204314	-85.942840
0.310000	15.094295	-89.751869
0.310605	15.986099	-93.519415
0.311211	16.797713	-96.532694
0.311816	17.559512	-99.288675
0.312422	18.274534	-101.934308
0.313027	18.899647	-104.232360
0.313633	19.539340	-106.098239
0.314238	20.078188	-107.596745
0.314844	20.544745	-108.765020
0.315449	20.977889	-109.607947
0.316055	21.267057	-110.078077
0.316660	21.537393	-110.170801
0.317266	21.675902	-109.971253
0.317871	21.770063	-109.339804
0.318477	21.812588	-108.177222
0.319082	21.802261	-107.015725
0.319688	21.634592	-105.368643
0.320293	21.500943	-103.155996
0.320898	21.214812	-100.764677
0.321504	20.926860	-98.056685
0.322109	20.462126	-95.047473
0.322715	19.999821	-91.687969
0.323320	19.484665	-88.095840
0.323926	18.888105	-84.176463
0.324531	18.210747	-79.917910
0.325137	17.504837	-75.416700
0.325742	16.761870	-70.759865
0.326348	15.936284	-65.986175
0.326953	15.035368	-60.535215
0.327559	14.104685	-55.127365
0.328164	13.148487	-49.771299
0.328770	12.216589	-44.012072
0.329375	11.114592	-38.085018
0.329980	10.083672	-32.075271
0.330586	8.996863	-25.978222
0.331191	7.861454	-19.860839
0.331797	6.673192	-13.611418
0.332402	5.528671	-7.369046
0.333008	4.291810	-1.097121
0.333613	3.129671	5.161789
0.334219	1.932297	11.554906
0.334824	0.684502	17.629723
0.335430	-0.478245	23.739515
0.336035	-1.687161	30.085456
0.336641	-2.933742	35.893215
0.337246	-4.082516	41.721851
0.337852	-5.314517	47.429023
0.338457	-6.428663	53.007139
0.339062	-7.564680	58.314945
0.339668	-8.627797	63.567169
0.340273	-9.646567	68.475337
0.340879	-10.656225	73.253636
0.341484	-11.661022	77.734512
0.342090	-12.559508	81.944534
0.342695	-13.457386	86.051529
0.343301	-14.279935	89.804164
0.343906	-15.025940	93.006958
0.344512	-15.736710	96.356973
0.345117	-16.490004	99.263971
0.345723	-17.067125	101.652307
0.346328	-17.587748	103.851398
0.346934	-18.122952	105.698570
0.347539	-18.675165	107.166709
0.348145	-18.973446	108.343661
0.348750	-19.357990	109.099285
0.349355	-19.543277	109.578904
0.349961	-19.810575	109.653464
0.350566	-20.003151	109.336519
0.351172	-20.057218	108.695852
0.351777	-20.082733	107.889527
0.352383	-20.123435	106.442264
0.352988	-19.963663	104.652300
0.353594	-19.826369	102.884026
0.354199	-19.570006	100.554795
0.354805	-19.237706	97.928411
0.355410	-18.855592	94.922724
0.356016	-18.466794	91.650522
0.356621	-17.999630	88.093639
0.357227	-17.492372	84.202730
0.357832	-16.850856	80.112003
0.358438	-16.162564	75.788380
0.359043	-15.482169	71.168960
0.359648	-14.725837	66.107335
0.360254	-13.852259	61.185069
0.360859	-13.049149	56.073016
0.361465	-12.134261	50.500864
0.362070	-11.148904	44.823244
0.362676	-10.153218	39.168671
0.363281	-9.169076	33.351422
0.363887	-8.117501	27.317545
0.364492	-6.988774	21.221039
0.365098	-5.880095	15.085761
0.365703	-4.826698	8.875382
0.366309	-3.663951	2.671510
0.366914	-2.517000	-3.658435
0.367520	-1.345748	-9.832484
0.368125	-0.186647	-15.997585
0.368730	1.057504	-22.407783
0.369336	2.274925	-28.310164
0.369941	3.372062	-34.217426
0.370547	4.515976	-40.198163
0.371152	5.655030	-46.088615
0.371758	6.765532	-51.710111
0.372363	7.872388	-57.212042
0.372969	9.016910	-62.496530
0.373574	10.070915	-67.574693
0.374180	11.155294	-72.463340
0.374785	12.154624	-77.111771
0.375391	13.155777	-81.569058
0.375996	14.064590	-85.728922
0.376602	14.949104	-89.390731
0.377207	15.788055	-93.136316
0.377812	16.639764	-96.440511
0.378418	17.382731	-99.122747
0.379023	18.103220	-101.672673
0.379629	18.758101	-104.083513
0.380234	19.360736	-105.958068
0.380840	19.875285	-107.502122
0.381445	20.343056	-108.759598
0.382051	20.735498	-109.649700
0.382656	21.002797	-110.142062
0.383262	21.234252	-110.297145
0.383867	21.477858	-110.023309
0.384473	21.595105	-109.566193
0.385078	21.686836	-108.541071
0.385684	21.626087	-107.052598
0.386289	21.542253	-105.663084
0.386895	21.378229	-103.540992
0.387500	21.106071	-101.091111
0.388105	20.778023	-98.471234
0.388711	20.377684	-95.510554
0.389316	19.946969	-92.200937
0.389922	19.464618	-88.583322
0.390527	18.910582	-84.673163
0.391133	18.264207	-80.478867
0.391738	17.595354	-76.061163
0.392344	16.874865	-71.278255
0.392949	16.082690	-66.466878
0.393555	15.186027	-61.352927
0.394160	14.231652	-55.745529
0.394766	13.298538	-50.239260
0.395371	12.339303	-44.683105
0.395977	11.328430	-38.779368
0.396582	10.269566	-32.762301
0.397187	9.203411	-26.715681
0.397793	8.072255	-20.529974
0.398398	6.912546	-14.311461
0.399004	5.779566	-8.018660
0.399609	4.622287	-1.756768
0.400215	3.382389	4.503770
0.400820	2.156463	10.839408
0.401426	0.953622	17.088829
0.402031	-0.255294	22.979281
0.402637	-1.392526	29.254188
0.403242	-2.589292	35.419560
0.403848	-3.784843	41.144084
0.404453	-4.926327	46.838784
0.405059	-6.110943	52.390602
0.405664	-7.164948	57.790861
0.406270	-8.290030	62.965002
0.406875	-9.289360	67.972401
0.407480	-10.316027	72.716539
0.408086	-11.337835	77.276311
0.408691	-12.229031	81.544896
0.409297	-13.105647	85.531241
0.409902	-13.908756	89.446550
0.410508	-14.812709	92.663172
0.411113	-15.418989	95.864069
0.411719	-16.184434	98.929132
0.412324	-16.827164	101.390400
0.412930	-17.400640	103.568886
0.413535	-17.872056	105.436392
0.414141	-18.325856	106.990478
0.414746	-18.757785	108.206201
0.415352	-19.107702	109.006289
0.415957	-19.395048	109.484553
0.416563	-19.669028	109.609270
0.417168	-19.845809	109.392913
0.417773	-19.915671	108.686091
0.418379	-19.995861	107.861330
0.418984	-20.039600	106.641812
0.419590	-19.935111	104.797623
0.420195	-19.772302	102.932828
0.420801	-19.528089	100.754613
0.421406	-19.279016	98.111420
0.422012	-18.891434	95.178395
0.422617	-18.543946	91.942523
0.423223	-18.076175	88.400823
0.423828	-17.517279	84.587456
0.424434	-17.016095	80.478292
0.425039	-16.352103	76.127828
0.425645	-15.675960	71.631498
0.426250	-14.867384	66.601324
0.426855	-14.035115	61.494693
0.427461	-13.217426	56.604149
0.428066	-12.286135	51.037419
0.428672	-11.343302	45.335941
0.429277	-10.350047	39.686790
0.429883	-9.409644	33.816943
0.430488	-8.371434	27.885822
0.431094	-7.263362	21.786333
0.431699	-6.168655	15.666239
0.432305	-5.022311	9.480261
0.432910	-3.913024	3.268255
0.433516	-2.744203	-3.047863
0.434121	-1.582672	-9.219742
0.434727	-0.477637	-15.379692
0.435332	0.734924	-21.844928
0.435937	1.965102	-27.795841
0.436543	3.069529	-33.698765
0.437148	4.204331	-39.731015
0.437754	5.361610	-45.573478
0.438359	6.554731	-51.210158
0.438965	7.648830	-56.681722
0.439570	8.738070	-61.995221
0.440176	9.824272	-67.107546
0.440781	10.925661	-72.022221
0.441387	11.935926	-76.708609
0.441992	12.917639	-81.188671
0.442598	13.885987	-85.395982
0.443203	14.798445	-89.113641
0.443809	15.639826	-92.829132
0.444414	16.481207	-96.183214
0.445020	17.283709	-98.919132
0.445625	18.042471	-101.504576
0.446230	18.709501	-103.845736
0.446836	19.367419	-105.839044
0.447441	19.866780	-107.380116
0.448047	20.335766	-108.693715
0.448652	20.779846	-109.562940
0.449258	21.085416	-110.098411
0.449863	21.367901	-110.263526
0.450469	21.553187	-110.027105
0.451074	21.681977	-109.609302
0.451680	21.776746	-108.733299
0.452285	21.755483	-107.198192
0.452891	21.644919	-105.753911
0.453496	21.491830	-103.873391
0.454102	21.256730	-101.472854
0.454707	20.942654	-98.754017
0.455313	20.579980	-95.833464
0.455918	20.226417	-92.571022
0.456523	19.702756	-88.969132
0.457129	19.143253	-85.085544
0.457734	18.498700	-80.956859
0.458340	17.826202	-76.561117
0.458945	17.134873	-71.869849
0.459551	16.293491	-66.950294
0.460156	15.484915	-61.974073
0.460762	14.627131	-56.399210
0.461367	13.638736	-50.800759
0.461973	12.688005	-45.257076
0.462578	11.655871	-39.439556
0.463184	10.633456	-33.424929
0.463789	9.552721	-27.339538
0.464395	8.433714	-21.216461
0.465000	7.276435	-15.006353
0.465605	6.091212	-8.756390
0.466211	4.905380	-2.476061
0.466816	3.677632	3.750043
0.467422	2.494231	10.018172
0.468027	1.290782	16.444366
0.468633	0.110418	22.482581
0.469238	-1.103358	28.423733
0.469844	-2.293441	34.679933
0.470449	-3.508432	40.512364
0.471055	-4.704591	46.174800
0.471660	-5.856403	51.775963
0.472266	-6.983307	57.175137
0.472871	-8.107173	62.404858
0.473477	-9.166038	67.372945
0.474082	-10.147751	72.191642
0.474687	-11.133109	76.734876
0.475293	-12.087484	81.084256
0.475898	-13.017560	85.015833
0.476504	-13.864408	88.868242
0.477109	-14.683312	92.447899
0.477715	-15.425064	95.398548
0.478320	-16.136442	98.421044
0.478926	-16.788284	101.149913
0.479531	-17.381200	103.334906
0.480137	-17.939488	105.202141
0.480742	-18.383568	106.733452
0.481348	-18.825824	108.028343
0.481953	-19.212191	108.860695
0.482559	-19.540847	109.386135
0.483164	-19.772910	109.525764
0.483770	-19.976421	109.389659
0.484375	-20.060863	108.829516
0.484980	-20.132547	107.763725
0.485586	-20.093060	106.751346
0.486191	-20.063900	105.162556
0.486797	-19.921746	103.053479
0.487402	-19.758330	100.908612
0.488008	-19.447292	98.369802
0.488613	-19.207939	95.411833
0.489219	-18.730448	92.237507
0.489824	-18.319781	88.709363
0.490430	-17.720790	84.913077
0.491035	-17.102360	80.884166
0.491641	-16.531921	76.551324
0.492246	-15.809002	71.962270
0.492852	-15.027762	67.230604
0.493457	-14.201568	62.023386
0.494063	-13.430657	56.871477
0.494668	-12.492684	51.726889
0.495273	-11.562000	46.015379
0.495879	-10.492201	40.287060
0.496484	-9.505021	34.472793
0.497090	-8.402416	28.557669
0.497695	-7.317429	22.463602
0.498301	-6.154683	16.306364
0.498906	-5.064836	10.110083
0.499512	-3.939754	3.926003
0.500117	-2.812243	-2.385234
0.500723	-1.626411	-8.706774
0.501328	-0.435720	-14.762341
0.501934	0.766513	-21.019083
0.502539	1.968140	-27.308088
0.503145	3.178878	-33.118558
0.503750	4.322185	-39.041274
0.504355	5.464276	-44.882653
0.504961	6.637350	-50.580064
0.505566	7.798882	-56.053798
0.506172	8.875971	-61.420979
0.506777	9.923901	-66.552283
0.507383	11.039870	-71.484581
0.507988	12.087800	-76.175849
0.508594	13.011801	-80.597348
0.509199	13.958279	-84.964351
0.509805	14.905972	-88.793986
0.510410	15.737633	-92.280376
0.511016	16.616679	-95.816112
0.511621	17.347496	-98.755915
0.512227	18.098360	-101.219895
0.512832	18.806700	-103.638597
0.513437	19.426953	-105.670947
0.514043	20.039916	-107.291187
0.514648	20.491893	-108.545409
0.515254	20.830268	-109.530676
0.515859	21.239112	-110.114949
0.516465	21.465708	-110.304737
0.517070	21.640667	-110.149382
0.517676	21.780391	-109.644277
0.518281	21.859365	-108.934744
0.518887	21.893385	-107.462809
0.519492	21.717211	-105.862632
0.520098	21.594497	-104.126893
0.520703	21.362434	-101.786545
0.521309	21.039854	-99.094279
0.521914	20.690544	-96.184028
0.522520	20.202117	-92.998314
0.523125	19.730701	-89.443871
0.523730	19.089793	-85.615592
0.524336	18.539402	-81.421024
0.524941	17.806155	-77.114482
0.525547	17.130013	-72.453309
0.526152	16.342091	-67.459737
0.526758	15.438138	-62.552924
0.527363	14.511099	-57.269249
0.527969	13.625371	-51.478029
0.528574	12.664313	-45.925398
0.529180	11.705685	-40.130653
0.529785	10.528359	-34.184891
0.530391	9.583703	-28.083775
0.530996	8.442827	-21.988082
0.531602	7.253958	-15.761435
0.532207	6.074809	-9.457789
0.532813	4.938185	-3.164717
0.533418	3.695249	3.111816
0.534023	2.502736	9.264988
0.534629	1.290782	15.605507
0.535234	0.010182	21.830527
0.535840	-1.080880	27.713116
0.536445	-2.258814	33.827246
0.537051	-3.510255	39.918059
0.537656	-4.655991	45.555552
0.538262	-5.799298	51.129059
0.538867	-6.907370	56.552635
0.539473	-8.064041	61.821127
0.540078	-9.099821	66.818224
0.540684	-10.066954	71.630143
0.541289	-11.017077	76.227873
0.541895	-12.003650	80.636629
0.542500	-12.883303	84.637072
0.543105	-13.719217	88.336567
0.543711	-14.460969	92.157525
0.544316	-15.264078	95.279253
0.544922	-15.924426	98.092984
0.545527	-16.561689	100.829986
0.546133	-17.218391	103.110415
0.546738	-17.769390	105.004491
0.547344	-18.200711	106.570235
0.547949	-18.684885	107.891425
0.548555	-18.996531	108.811893
0.549160	-19.275371	109.382068
0.549766	-19.508042	109.538236
0.550371	-19.744358	109.332181
0.550977	-19.832444	108.976194
0.551582	-19.938149	107.889527
0.552187	-19.927821	106.695495
0.552793	-19.834874	105.407382
0.553398	-19.708515	103.407838
0.554004	-19.540239	101.107075
0.554609	-19.216444	98.634419
0.555215	-18.960688	95.815266
0.555820	-18.613808	92.571532
0.556426	-18.109587	89.118219
0.557031	-17.588963	85.414657
0.557637	-17.042825	81.385204
0.558242	-16.401310	77.069986
0.558848	-15.700260	72.426707
0.559453	-14.948788	67.728931
0.560059	-14.157221	62.760303
0.560664	-13.366262	57.334016
0.561270	-12.430719	52.220607
0.561875	-11.523121	46.704035
0.562480	-10.535333	40.872417
0.563086	-9.510488	35.084450
0.563691	-8.476531	29.140858
0.564297	-7.395796	23.100203
0.564902	-6.316884	16.924528
0.565508	-5.137735	10.752106
0.566113	-4.086768	4.565586
0.566719	-2.935564	-1.707694
0.567324	-1.755200	-8.063396
0.567930	-0.594276	-14.213585
0.568535	0.524123	-20.221163
0.569141	1.770704	-26.602080
0.569746	2.985087	-32.679065
0.570352	4.081009	-38.445342
0.570957	5.290533	-44.243883
0.571562	6.423512	-49.993079
0.572168	7.506676	-55.565231
0.572773	8.649983	-60.864903
0.573379	9.689408	-66.052329
0.573984	10.817527	-71.021229
0.574590	11.829614	-75.775940
0.575195	12.768802	-80.192830
0.575801	13.753553	-84.466024
0.576406	14.726153	-88.545907
0.577012	15.642864	-92.002745
0.577617	16.439898	-95.299890
0.578223	17.213240	-98.520308
0.578828	17.965926	-101.150487
0.579434	18.627489	-103.445828
0.580039	19.258677	-105.523997
0.580645	19.810283	-107.168910
0.581250	20.310252	-108.503927
0.581855	20.732461	-109.493261
0.582461	21.131586	-110.106002
0.583066	21.390379	-110.394208
0.583672	21.629124	-110.227466
0.584277	21.761558	-109.681421
0.584883	21.819878	-108.990596
0.585488	21.821700	-107.851602
0.586094	21.775531	-106.056486
0.586699	21.604825	-104.236427
0.587305	21.369724	-102.085054
0.587910	21.049574	-99.489307
0.588516	20.721526	-96.548690
0.589121	20.335766	-93.323664
0.589727	19.849770	-89.863301
0.590332	19.297557	-86.018212
0.590938	18.635387	-81.919080
0.591543	17.979899	-77.546655
0.592148	17.258802	-73.046529
0.592754	16.500647	-68.134566
0.593359	15.626461	-62.860651
0.593965	14.763210	-57.815294
0.594570	13.834957	-52.286522
0.595176	12.886656	-46.415591
0.595781	11.871531	-40.712486
0.596387	10.854584	-34.790583
0.596992	9.735577	-28.758875
0.597598	8.606851	-22.583200
0.598203	7.483591	-16.418912
0.598809	6.334210	-10.188199
0.599414	5.184828	-3.910039
0.600020	3.991707	2.438885
0.600625	2.762744	8.635979
0.601230	1.585417	14.779932
0.601836	0.404446	21.148919
0.602441	-0.811760	27.225092
0.603047	-1.995769	33.051830
0.603652	-3.165805	39.119868
0.604258	-4.331589	44.902955
0.604863	-5.454848	50.524452
0.605469	-6.619417	55.942876
0.606074	-7.743891	61.210826
0.606680	-8.803363	66.300918
0.607285	-9.797834	71.123682
0.607891	-10.803846	75.668001
0.608496	-11.719949	80.076215
0.609102	-12.667642	84.267529
0.609707	-13.529678	87.851525
0.610313	-14.287833	91.574336
0.610918	-15.078792	94.991861
0.611523	-15.853349	97.747300
0.612129	-16.480892	100.400525
0.612734	-17.082920	102.796724
0.613340	-17.622983	104.715743
0.613945	-18.101082	106.384786
0.614551	-18.514787	107.669916
0.615156	-18.954006	108.680669
0.615762	-19.198219	109.254368
0.616367	-19.495892	109.501905
0.616973	-19.677533	109.349533
0.617578	-19.838519	108.997613
0.618184	-19.924176	108.122694
0.618789	-19.973383	106.727758
0.619395	-19.894409	105.499564
0.620000	-19.794172	103.649410
0.620605	-19.626503	101.359492
0.621211	-19.342803	98.882769
0.621816	-19.051205	96.096422
0.622422	-18.676988	92.969272
0.623027	-18.246274	89.458209
0.623633	-17.777895	85.702591
0.624238	-17.225681	81.746071
0.624844	-16.560474	77.527373
0.625449	-15.937791	72.908224
0.626055	-15.155336	68.067837
0.626660	-14.345545	63.297129
0.627266	-13.494444	57.974412
0.627871	-12.677970	52.599910
0.628477	-11.774016	47.203989
0.629082	-10.789874	41.513085
0.629687	-9.759561	35.706139
0.630293	-8.746866	29.741399
0.630898	-7.629075	23.741412
0.631504	-6.501563	17.582276
0.632109	-5.387416	11.413921
0.632715	-4.218595	5.217098
0.633320	-3.120243	-1.038830
0.633926	-1.903429	-7.212336
0.634531	-0.752833	-13.630939
0.635137	0.440288	-19.662918
0.635742	1.646774	-25.804160
0.636348	2.805268	-32.093707
0.636953	4.011755	-37.922885
0.637559	5.136836	-43.636564
0.638164	6.346967	-49.413686
0.638770	7.489059	-55.023795
0.639375	8.585588	-60.351393
0.639980	9.678473	-65.466158
0.640586	10.762852	-70.509888
0.641191	11.813212	-75.262159
0.641797	12.814364	-79.750355
0.642402	13.835564	-83.885547
0.643008	14.696993	-87.987932
0.643613	15.686603	-91.735145
0.644219	16.506722	-94.795870
0.644824	17.273989	-97.977517
0.645430	18.069808	-100.850895
0.646035	18.784223	-103.206425
0.646641	19.390503	-105.208137
0.647246	19.977952	-106.950384
0.647852	20.525913	-108.331221
0.648457	20.988217	-109.353632
0.649062	21.292572	-110.022767
0.649668	21.591460	-110.296061
0.650273	21.851468	-110.297145
0.650879	21.997874	-109.791227
0.651484	22.121803	-108.980293
0.652090	22.107831	-108.010752
0.652695	22.033109	-106.360959
0.653301	21.902497	-104.346775
0.653906	21.729969	-102.213024
0.654512	21.444446	-99.728710
0.655117	21.037424	-96.865906
0.655723	20.660169	-93.708660
0.656328	20.157163	-90.228777
0.656934	19.622567	-86.461501
0.657539	18.999884	-82.354777
0.658145	18.283039	-78.028172
0.658750	17.612364	-73.488462
0.659355	16.757010	-68.810208
0.659961	15.911984	-63.514332
0.660566	14.993451	-58.341818
0.661172	14.106507	-53.041062
0.661777	13.110822	-47.235200
0.662383	12.121212	-41.387044
0.662988	11.104265	-35.478697
0.663594	9.986473	-29.459190
0.664199	8.840736	-23.330419
0.664805	7.668877	-17.151762
0.665410	6.471504	-10.925929
0.666016	5.277775	-4.670543
0.666621	4.079187	1.646388
0.667227	2.820456	8.031100
0.667832	1.582380	14.068231
0.668438	0.424493	20.253395
0.669043	-0.770450	26.603945
0.669648	-2.005489	32.499007
0.670254	-3.194357	38.362346
0.670859	-4.402666	44.232464
0.671465	-5.553870	49.852876
0.672070	-6.744561	55.311156
0.672676	-7.813146	60.525152
0.673281	-8.935797	65.665131
0.673887	-9.951530	70.515278
0.674492	-10.991562	75.131174
0.675098	-11.913133	79.512818
0.675703	-12.805544	83.725009
0.676309	-13.683375	87.631643
0.676914	-14.502279	91.012024
0.677520	-15.267116	94.421957
0.678125	-15.993680	97.605231
0.678730	-16.644308	100.142414
0.679336	-17.290076	102.470561
0.679941	-17.783362	104.551442
0.680547	-18.305808	106.196083
0.681152	-18.718298	107.550350
0.681758	-19.080972	108.556494
0.682363	-19.432105	109.171946
0.682969	-19.701833	109.420025
0.683574	-19.909596	109.357396
0.684180	-19.983711	108.825178
0.684785	-20.054180	108.216775
0.685391	-20.085770	107.012168
0.685996	-19.988571	105.372678
0.686602	-19.871324	103.739424
0.687207	-19.708515	101.670201
0.687813	-19.448507	99.157148
0.688418	-19.081580	96.320914
0.689023	-18.755962	93.233618
0.689629	-18.235339	89.864625
0.690234	-17.703173	86.148863
0.690840	-17.167969	82.167941
0.691445	-16.456592	77.978253
0.692051	-15.799889	73.559465
0.692656	-15.045987	68.652110
0.693262	-14.262318	63.701376
0.693867	-13.383880	58.830081
0.694473	-12.541891	53.331133
0.695078	-11.567468	47.729971
0.695684	-10.543231	42.171646
0.696289	-9.566378	36.391271
0.696895	-8.465596	30.502445
0.697500	-7.396404	24.460977
0.698105	-6.286509	18.326513
0.698711	-5.169933	12.155989
0.699316	-4.117750	5.933680
0.699922	-2.895469	-0.325772
0.700527	-1.736976	-6.546454
0.701133	-0.538387	-12.710200
0.701738	0.614640	-19.142358
0.702344	1.854538	-25.175422
0.702949	3.014247	-31.105729
0.703555	4.195826	-37.233687
0.704160	5.348852	-43.082657
0.704766	6.484261	-48.721776
0.705371	7.586258	-54.343002
0.705977	8.707087	-59.743532
0.706582	9.789037	-64.923638
0.707187	10.831499	-69.928868
0.707793	11.895831	-74.725875
0.708398	12.921284	-79.316013
0.709004	13.926689	-83.619302
0.709609	14.871344	-87.405828
0.710215	15.723053	-91.279656
0.710820	16.524947	-94.823253
0.711426	17.365113	-97.654607
0.712031	18.058873	-100.416011
0.712637	18.757493	-102.962413
0.713242	19.403261	-105.101856
0.713848	19.978559	-106.794487
0.714453	20.440863	-108.231447
0.715059	20.911672	-109.294527
0.715664	21.272525	-110.009482
0.716270	21.559870	-110.294434
0.716875	21.734829	-110.282776
0.717480	21.847823	-110.029545
0.718086	21.958994	-109.240844
0.718691	21.923760	-107.951376
0.719297	21.885488	-106.687664
0.719902	21.746979	-104.890379
0.720508	21.566552	-102.544881
0.721113	21.262197	-100.079274
0.721719	20.886157	-97.324377
0.722324	20.414741	-94.201023
0.722930	19.966409	-90.705414
0.723535	19.393541	-87.018391
0.724141	18.790905	-82.953692
0.724746	18.144530	-78.674262
0.725352	17.417965	-74.022578
0.725957	16.663456	-69.283591
0.726562	15.808710	-64.381117
0.727168	14.933916	-58.898437
0.727773	13.963139	-53.401928
0.728379	12.997828	-47.977811
0.728984	12.029480	-42.114471
0.729590	10.886174	-36.197178
0.730195	9.900209	-30.138899
0.730801	8.742930	-24.089568
0.731406	7.636680	-17.856144
0.732012	6.389492	-11.608892
0.732617	5.294785	-5.351608
0.733223	4.057924	0.898084
0.733828	2.856906	7.206068
0.734434	1.664392	13.539538
0.735039	0.463981	19.573143
0.735645	-0.718813	25.645791
0.736250	-1.967216	31.933712
0.736855	-3.116598	37.795696
0.737461	-4.333411	43.577698
0.738066	-5.457278	49.234712
0.738672	-6.530115	54.706819
0.739277	-7.706226	60.020047
0.739883	-8.750511	65.081129
0.740488	-9.823956	70.018578
0.741094	-10.777724	74.681649
0.741699	-11.727239	79.088237
0.742305	-12.599603	83.243763
0.742910	-13.470144	87.237970
0.743516	-14.269608	90.916046
0.744121	-14.982200	94.007408
0.744727	-15.687503	97.250329
0.745332	-16.383692	100.027186
0.745938	-17.020348	102.320087
0.746543	-17.549476	104.353250
0.747148	-18.036688	106.117728
0.747754	-18.412120	107.526220
0.748359	-18.814282	108.496846
0.748965	-19.127142	109.165710
0.749570	-19.382290	109.489975
0.750176	-19.536594	109.510039
0.750781	-19.730993	109.078951
0.751387	-19.759545	108.253376
0.751992	-19.807537	107.422922
0.752598	-19.693328	105.811357
0.753203	-19.627718	103.881764
0.753809	-19.381683	101.993110
0.754414	-19.179994	99.531299
0.755020	-18.796057	96.814903
0.755625	-18.428522	93.681787
0.756230	-18.046408	90.311980
0.756836	-17.538541	86.658848
0.757441	-16.969926	82.676028
0.758047	-16.390982	78.438622
0.758652	-15.677783	74.081380
0.759258	-14.963975	69.342936
0.759863	-14.124417	64.226002
0.760469	-13.248408	59.286384
0.761074	-12.450766	54.128510
0.761680	-11.513401	48.474479
0.762285	-10.560240	42.787641
0.762891	-9.492263	37.046308
0.763496	-8.503868	31.147993
0.764102	-7.427386	25.113032
0.764707	-6.363661	18.985888
0.765312	-5.263487	12.804790
0.765918	-4.092236	6.602816
0.766523	-2.951967	0.380507
0.767129	-1.795295	-5.946184
0.767734	-0.624651	-12.046758
0.768340	0.469448	-18.356911
0.768945	1.724534	-24.707190
0.769551	2.872700	-30.426562
0.770156	3.982595	-36.533372
0.770762	5.149594	-42.464764
0.771367	6.212103	-48.165700
0.771973	7.473264	-53.770116
0.772578	8.526661	-59.185557
0.773184	9.599498	-64.417990
0.773789	10.641961	-69.467143
0.774395	11.671058	-74.282044
0.775000	12.718380	-78.825007
0.775605	13.674578	-83.193095
0.776211	14.577924	-87.223632
0.776816	15.503747	-90.806272
0.777422	16.320221	-94.513087
0.778027	17.094170	-97.568118
0.778633	17.854147	-100.215107
0.779238	18.490195	-102.735481
0.779844	19.182740	-104.892006
0.780449	19.748318	-106.718030
0.781055	20.266512	-108.109441
0.781660	20.715451	-109.258467
0.782266	21.028919	-110.015989
0.782871	21.361826	-110.357877
0.783477	21.578702	-110.305279
0.784082	21.708706	-110.017345
0.784687	21.794971	-109.452050
0.785293	21.825953	-108.112695
0.785898	21.746979	-106.752734
0.786504	21.606647	-105.214644
0.787109	21.431688	-102.927980
0.787715	21.117613	-100.420620
0.788320	20.789566	-97.596858
0.788926	20.383759	-94.580055
0.789531	19.983419	-91.115896
0.790137	19.474338	-87.396610
0.790742	18.855907	-83.351974
0.791348	18.167007	-79.154152
0.791953	17.469603	-74.592753
0.792559	16.783133	-69.766735
0.793164	15.938714	-64.904930
0.793770	15.070603	-59.597667
0.794375	14.167864	-53.943093
0.794980	13.213489	-48.521415
0.795586	12.209906	-42.745649
0.796191	11.147397	-36.828627
0.796797	10.123159	-30.782007
0.797402	9.007798	-24.699870
0.798008	7.868136	-18.561339
0.798613	6.715110	-12.279112
0.799219	5.560261	-5.987124
0.799824	4.398729	0.243047
0.800430	3.128456	6.518496
0.801035	1.942017	12.927610
0.801641	0.751934	19.006493
0.802246	-0.447263	24.994550
0.802852	-1.627019	31.277591
0.803457	-2.787335	37.337495
0.804063	-3.997466	43.030840
0.804668	-5.107968	48.644474
0.805273	-6.279827	54.169721
0.805879	-7.410984	59.477798
0.806484	-8.472886	64.593376
0.807090	-9.512311	69.475787
0.807695	-10.523791	74.203657
0.808301	-11.465409	78.650642
0.808906	-12.379082	82.777971
0.809512	-13.245978	86.754555
0.810117	-14.067919	90.583376
0.810723	-14.817569	93.724354
0.811328	-15.505861	96.762847
0.811934	-16.252473	99.762298
0.812539	-16.874549	102.138975
0.813145	-17.364190	104.161565
0.813750	-17.887851	105.956951
0.814355	-18.297303	107.391471
0.814961	-18.731055	108.435843
0.815566	-19.063355	109.139683
0.816172	-19.330653	109.527391
0.816777	-19.545707	109.552605
0.817383	-19.731600	109.174929
0.817988	-19.770480	108.361013
0.818594	-19.840949	107.514291
0.819199	-19.828192	106.028528
0.819805	-19.661131	104.153160
0.820410	-19.483134	102.144940
0.821016	-19.270511	99.829265
0.821621	-19.013540	97.080333
0.822227	-18.581611	94.051872
0.822832	-18.235946	90.661188
0.823438	-17.746305	87.033271
0.824043	-17.183764	83.137211
0.824648	-16.562904	78.946439
0.825254	-15.850311	74.522499
0.825859	-15.168701	69.904706
0.826465	-14.381995	64.816783
0.827070	-13.513276	59.749736
0.827676	-12.676147	54.710886
0.828281	-11.725417	49.114875
0.828887	-10.770434	43.376253
0.829492	-9.780824	37.667996
0.830098	-8.759016	31.770766
0.830703	-7.633934	25.762646
0.831309	-6.544088	19.634147
0.831914	-5.423258	13.497513
0.832520	-4.310934	7.329701
0.833125	-3.137860	1.047745
0.833730	-1.947776	-5.281658
0.834336	-0.809937	-11.406090
0.834941	0.385614	-17.635177
0.835547	1.573875	-23.977594
0.836152	2.744519	-29.805687
0.836758	3.865956	-35.777477
0.837363	5.054824	-41.782886
0.837969	6.199953	-47.523135
0.838574	7.244846	-53.179064
0.839180	8.406377	-58.587186
0.839785	9.495617	-63.847002
0.840391	10.655933	-68.880158
0.840996	11.699610	-73.725425
0.841602	12.703193	-78.310955
0.842207	13.660606	-82.673078
0.842812	14.597971	-86.773294
0.843418	15.504962	-90.393078
0.844023	16.408915	-94.047566
0.844629	17.167677	-97.230026
0.845234	17.942234	-99.908737
0.845840	18.591039	-102.512617
0.846445	19.313351	-104.616272
0.847051	19.894725	-106.503570
0.847656	20.376469	-107.956798
0.848262	20.816295	-109.083863
0.848867	21.194158	-109.919198
0.849473	21.496690	-110.280607
0.850078	21.752446	-110.349472
0.850684	21.911002	-110.057742
0.851289	22.025819	-109.455575
0.851895	22.071381	-108.246088
0.852500	21.957779	-106.862268
0.853105	21.839925	-105.350749
0.853711	21.671042	-103.112887
0.854316	21.365471	-100.602273
0.854922	20.991862	-97.867711
0.855527	20.603672	-94.821627
0.856133	20.090946	-91.476763
0.856738	19.604342	-87.793536
0.857344	19.030259	-83.797431
0.857949	18.309769	-79.600152
0.858555	17.618439	-75.100298
0.859160	16.795283	-70.255302
0.859766	15.948434	-65.471851
0.860371	15.212757	-60.185465
0.860977	14.160575	-54.572373
0.861582	13.263304	-49.072340
0.862187	12.250609	-43.432950
0.862793	11.217866	-37.497491
0.863398	10.134702	-31.450058
0.864004	9.012050	-25.398015
0.864609	7.916736	-19.211495
0.865215	6.788009	-12.962617
0.865820	5.559046	-6.699910
0.866426	4.362279	-0.372948
0.867031	3.156401	5.866442
0.867637	1.946877	12.105289
0.868242	0.723989	18.430353
0.868848	-0.432683	24.359576
0.869453	-1.613046	30.503530
0.870059	-2.823785	36.616846
0.870664	-3.990176	42.403729
0.871270	-5.155353	48.040951
0.871875	-6.354549	53.566469
0.872480	-7.456546	58.912232
0.873086	-8.534243	64.021032
0.873691	-9.533573	68.976375
0.874297	-10.554165	73.712650
0.874902	-11.540131	78.240159
0.875508	-12.430112	82.382129
0.876113	-13.261773	86.230200
0.876719	-14.049087	90.167200
0.877324	-14.907478	93.496338
0.877930	-15.595163	96.390321
0.878535	-16.192331	99.386248
0.879141	-16.864221	101.909062
0.879746	-17.373910	103.955510
0.880352	-17.796727	105.733816
0.880957	-18.249919	107.232864
0.881563	-18.673343	108.363182
0.882168	-18.932744	109.117993
0.882773	-19.213406	109.456085
0.883379	-19.461872	109.503803
0.883984	-19.620428	109.263315
0.884590	-19.692113	108.491695
0.885195	-19.711553	107.460608
0.885801	-19.670243	106.332188
0.886406	-19.540239	104.511586
0.887012	-19.378038	102.401695
0.887617	-19.132002	100.115031
0.888223	-18.822787	97.440116
0.888828	-18.407260	94.466693
0.889434	-18.014818	91.109628
0.890039	-17.540364	87.498249
0.890645	-16.985113	83.652076
0.891250	-16.423787	79.487874
0.891855	-15.723345	75.054717
0.892461	-15.044772	70.410082
0.893066	-14.248953	65.534720
0.893672	-13.397852	60.244809
0.894277	-12.532171	55.235783
0.894883	-11.682285	49.853418
0.895488	-10.669590	44.036983
0.896094	-9.682409	38.283449
0.896699	-8.703127	32.470810
0.897305	-7.670992	26.465401
0.897910	-6.498525	20.351271
0.898516	-5.383771	14.151195
0.899121	-4.275092	7.985009
0.899727	-3.168235	1.749144
0.900332	-1.967824	-4.570498
0.900937	-0.802040	-10.866010
0.901543	0.355847	-16.865183
0.902148	1.472423	-23.145513
0.902754	2.726901	-29.419606
0.903359	3.872638	-35.163380
0.903965	5.013515	-41.018314
0.904570	6.163504	-46.870809
0.905176	7.256388	-52.572558
0.905781	8.428247	-58.016468
0.906387	9.443372	-63.255408
0.906992	10.507704	-68.352550
0.907598	11.549559	-73.197274
0.908203	12.580479	-77.834318
0.908809	13.542752	-82.165261
0.909414	14.477687	-86.418392
0.910020	15.394398	-90.121140
0.910625	16.210872	-93.541919
0.911230	17.048001	-96.926909
0.911836	17.763023	-99.740911
0.912441	18.484728	-102.225225
0.913047	19.098906	-104.498062
0.913652	19.631679	-106.413015
0.914258	20.230670	-107.848619
0.914863	20.682039	-109.036145
0.915469	21.088453	-109.840843
0.916074	21.346639	-110.310159
0.916680	21.615152	-110.425929
0.917285	21.832028	-110.070485
0.917891	21.875768	-109.476993
0.918496	21.916470	-108.653317
0.919102	21.891562	-106.979123
0.919707	21.753661	-105.293813
0.920312	21.614545	-103.426307
0.920918	21.346031	-100.986186
0.921523	20.994899	-98.210141
0.922129	20.571475	-95.185476
0.922734	20.111601	-91.857964
0.923340	19.584902	-88.208899
0.923945	19.079466	-84.238822
0.924551	18.340751	-80.046694
0.925156	17.671291	-75.601336
0.925762	16.947156	-70.836051
0.926367	16.124000	-65.777409
0.926973	15.257104	-60.772178
0.927578	14.263849	-55.361888
0.928184	13.441300	-49.584224
0.928789	12.368463	-43.952695
0.929395	11.346655	-38.131380
0.930000	10.313913	-32.141696
0.930605	9.193691	-26.062813
0.931211	8.142117	-19.844029
0.931816	7.003062	-13.659678
0.932422	5.777136	-7.378806
0.933027	4.648410	-1.054826
0.933633	3.419446	5.187817
0.934238	2.253055	11.387351
0.934844	1.028952	17.735732
0.935449	-0.200619	23.884024
0.936055	-1.368833	29.690427
0.936660	-2.589899	35.910025
0.937266	-3.767833	41.847652
0.937871	-4.895952	47.455322
0.938477	-6.059914	52.963488
0.939082	-7.102376	58.369169
0.939688	-8.197083	63.553613
0.940293	-9.237723	68.488351
0.940898	-10.292942	73.175553
0.941504	-11.214513	77.703604
0.942109	-12.097204	82.026685
0.942715	-12.967745	85.933590
0.943320	-13.772069	89.620884
0.943926	-14.506531	93.336646
0.944531	-15.298705	96.276991
0.945137	-15.964520	99.023483
0.945742	-16.641270	101.603504
0.946348	-17.132734	103.806934
0.946953	-17.683733	105.593102
0.947559	-18.098045	107.087270
0.948164	-18.533619	108.224095
0.948770	-18.802132	109.091422
0.949375	-19.119852	109.462592
0.949980	-19.384113	109.456898
0.950586	-19.514724	109.308051
0.951191	-19.618606	108.747636
0.951797	-19.625896	107.513749
0.952402	-19.617391	106.315649
0.953008	-19.528697	104.790031
0.953613	-19.373785	102.679598
0.954219	-19.080365	100.370430
0.954824	-18.839797	97.714765
0.955430	-18.573714	94.750018
0.956035	-18.080427	91.465615
0.956641	-17.621768	87.891109
0.957246	-17.137594	84.013486
0.957852	-16.522201	79.917878
0.958457	-15.886761	75.490414
0.959063	-15.127392	70.839001
0.959668	-14.419659	66.083748
0.960273	-13.571596	60.957867
0.960879	-12.702270	55.571706
0.961484	-11.832943	50.356625
0.962090	-10.905298	44.783660
0.962695	-9.958212	38.903782
0.963301	-8.871403	33.050474
0.963906	-7.785808	27.118540
0.964512	-6.743954	20.987058
0.965117	-5.643172	14.815992
0.965723	-4.513230	8.599919
0.966328	-3.387541	2.402825
0.966934	-2.269749	-3.851476
0.967539	-1.069945	-10.237544
0.968145	0.142008	-16.361705
0.968750	1.257977	-22.388262
0.969355	2.422546	-28.724714
0.969961	3.587115	-34.728225
0.970566	4.708552	-40.489350
0.971172	5.864616	-46.302261
0.971777	7.051055	-51.938398
0.972383	8.190716	-57.448462
0.972988	9.258086	-62.700145
0.973594	10.333353	-67.757702
0.974199	11.391610	-72.662888
0.974805	12.349023	-77.376931
0.975410	13.428542	-81.700012
0.976016	14.314271	-85.880210
0.976621	15.234019	-89.844322
0.977227	16.103345	-93.258323
0.977832	16.959306	-96.352125
0.978437	17.662786	-99.405530
0.979043	18.429446	-101.968741
0.979648	19.080681	-104.206603
0.980254	19.710654	-106.131859
0.980859	20.233100	-107.682962
0.981465	20.754938	-108.874555
0.982070	21.149810	-109.725615
0.982676	21.435941	-110.251596
0.983281	21.688051	-110.346219
0.983887	21.904927	-110.173784
0.984492	22.027034	-109.417617
0.985098	22.101756	-108.619969
0.985703	22.098111	-107.416176
0.986309	21.989369	-105.469230
0.986914	21.800438	-103.512524
0.987520	21.546505	-101.199561
0.988125	21.259160	-98.495907
0.988730	20.857605	-95.496456
0.989336	20.402591	-92.203919
0.989941	19.885612	-88.625075
0.990547	19.330361	-84.670181
0.991152	18.723473	-80.458261
0.991758	18.022424	-76.035677
0.992363	17.290999	-71.429542
0.992969	16.486067	-66.381745
0.993574	15.566319	-61.140908
0.994180	14.662366	-55.987101
0.994785	13.712243	-50.378890
0.995391	12.768195	-44.483015
0.995996	11.682600	-38.699115
0.996602	10.665045	-32.729494
0.997207	9.592816	-26.660642
0.997812	8.420349	-20.464091
0.998418	7.249098	-14.305768
0.999023	6.113689	-8.011611
0.999629	4.927250	-1.749176
1.000234	3.721372	4.588903
1.000840	2.460211	10.807687
1.001445	1.287137	16.888739
1.002051	0.069716	23.266944
1.002656	-1.101535	29.271540
1.003262	-2.322601	35.167686
1.003867	-3.500535	41.114803
1.004473	-4.626224	46.918495
1.005078	-5.850935	52.408767
1.005684	-6.964474	57.768629
1.006289	-8.064041	62.985065
1.006895	-9.115616	67.936884
1.007500	-10.130134	72.680479
1.008105	-11.117921	77.193347
1.008711	-11.986032	81.587463
1.009316	-12.893631	85.600378
1.009922	-13.734404	89.146416
1.010527	-14.517466	92.728513
1.011133	-15.279266	96.023490
1.011738	-15.986390	98.768084
1.012344	-16.592671	101.284120
1.012949	-17.177082	103.498936
1.013555	-17.668545	105.387590
1.014160	-18.159402	106.887451
1.014766	-18.581611	108.063589
1.015371	-18.916949	108.927663
1.015977	-19.218266	109.409994
1.016582	-19.444255	109.446596
1.017187	-19.658701	109.191738
1.017793	-19.726740	108.769598
1.018398	-19.766835	107.730919
1.019004	-19.762582	106.275252
1.019609	-19.592484	104.887094
1.020215	-19.489817	102.901649
1.020820	-19.286306	100.542594
1.021426	-18.977698	97.939527
1.022031	-18.630211	95.034156
1.022637	-18.234731	91.805334
1.023242	-17.796727	88.176874
1.023848	-17.239046	84.375708
1.024453	-16.641878	80.344899
1.025059	-16.030737	75.965424
1.025664	-15.276228	71.251382
1.026270	-14.496204	66.449495
1.026875	-13.656645	61.574946
1.027480	-12.791571	56.122631
1.028086	-11.900983	50.814013
1.028691	-10.945393	45.382846
1.029297	-9.997092	39.500527
1.029902	-8.962527	33.627969
1.030508	-7.877540	27.672176
1.031113	-6.808956	21.615254
1.031719	-5.682051	15.456930
1.032324	-4.552717	9.236520
1.032930	-3.395438	3.045119
1.033535	-2.261244	-3.071722
1.034141	-1.107003	-9.464025
1.034746	0.090371	-15.773636
1.035352	1.276810	-21.792059
1.035957	2.424369	-27.898055
1.036563	3.619312	-34.136089
1.037168	4.723739	-39.952253
1.037773	5.949665	-45.663220
1.038379	7.001847	-51.380153
1.038984	8.184641	-56.885608
1.039590	9.238646	-62.218357
1.040195	10.344895	-67.294351
1.040801	11.412872	-72.239662
1.041406	12.403090	-76.960212
1.042012	13.422468	-81.291969
1.042617	14.363478	-85.387577
1.043223	15.292339	-89.451192
1.043828	16.100308	-92.951410
1.044434	16.981784	-96.041687
1.045039	17.707133	-99.123289
1.045645	18.428838	-101.763229
1.046250	19.050913	-104.004615
1.046855	19.714299	-105.926617
1.047461	20.205762	-107.570174
1.048066	20.641944	-108.795386
1.048672	21.114576	-109.675457
1.049277	21.403744	-110.176224
1.049883	21.632162	-110.425929
1.050488	21.872730	-110.290909
1.051094	21.929227	-109.591137
1.051699	21.999697	-108.742517
1.052305	21.998482	-107.621417
1.052910	21.901890	-105.775872
1.053516	21.703239	-103.697160
1.054121	21.513700	-101.525452
1.054727	21.138876	-98.868703
1.055332	20.826623	-95.897178
1.055937	20.346701	-92.593525
1.056543	19.822433	-89.062670
1.057148	19.315174	-85.126213
1.057754	18.665154	-81.002408
1.058359	17.990226	-76.556779
1.058965	17.248474	-72.004326
1.059570	16.481815	-67.015635
1.060176	15.607021	-61.750667
1.060781	14.728583	-56.579237
1.061387	13.781497	-51.016575
1.061992	12.827122	-45.212882
1.062598	11.791950	-39.423831
1.063203	10.720935	-33.465326
1.063809	9.663285	-27.378580
1.064414	8.509044	-21.174979
1.065020	7.424664	-15.035364
1.065625	6.283180	-8.759915
1.066230	5.053609	-2.466029
1.066836	3.851983	3.939288
1.067441	2.628487	10.066161
1.068047	1.478498	16.222857
1.068652	0.323649	22.655287
1.069258	-0.942371	28.610538
1.069863	-2.137923	34.481741
1.070469	-3.276977	40.548424
1.071074	-4.465238	46.271050
1.071680	-5.619479	51.808769
1.072285	-6.741524	57.201978
1.072891	-7.819221	62.412721
1.073496	-8.857430	67.449402
1.074102	-9.926623	72.206011
1.074707	-10.857913	76.746263
1.075312	-11.739997	81.124111
1.075918	-12.619650	85.122385
1.076523	-13.483509	88.783922
1.077129	-14.319423	92.424311
1.077734	-15.034445	95.672655
1.078340	-15.711195	98.438125
1.078945	-16.368505	101.030076
1.079551	-16.931653	103.288544
1.080156	-17.463819	105.168521
1.080762	-17.890281	106.740501
1.081367	-18.352585	108.004484
1.081973	-18.684885	108.873980
1.082578	-18.934566	109.373934
1.083184	-19.234669	109.464490
1.083789	-19.413880	109.307238
1.084395	-19.517762	108.914920
1.085000	-19.562716	107.769148
1.085605	-19.567576	106.473986
1.086211	-19.491032	105.133817
1.086816	-19.398085	103.126411
1.087422	-19.160554	100.816972
1.088027	-18.894471	98.190860
1.088633	-18.547591	95.367640
1.089238	-18.217721	92.107909
1.089844	-17.706210	88.605522
1.090449	-17.152174	84.808152
1.091055	-16.589633	80.759449
1.091660	-16.010083	76.407357
1.092266	-15.342445	71.688705
1.092871	-14.485269	67.018314
1.093477	-13.727722	61.980277
1.094082	-12.939193	56.554262
1.094688	-11.953835	51.427839
1.095293	-11.082079	45.879003
1.095898	-10.099759	40.048199
1.096504	-9.033604	34.259418
1.097109	-8.020302	28.327755
1.097715	-6.941390	22.231249
1.098320	-5.821168	16.046898
1.098926	-4.775061	9.825945
1.099531	-3.601987	3.619632
1.100137	-2.494522	-2.604845
1.100742	-1.311729	-8.962716
1.101348	-0.146552	-15.215390
1.101953	1.033204	-21.130786
1.102559	2.220858	-27.466425
1.103164	3.377529	-33.569709
1.103770	4.529341	-39.284473
1.104375	5.695732	-45.108771
1.104980	6.825674	-50.805640
1.105586	7.924633	-56.400295
1.106191	8.984713	-61.668516
1.106797	10.060587	-66.799277
1.107402	11.106087	-71.726695
1.108008	12.097520	-76.506078
1.108613	13.162459	-80.840818
1.109219	14.068843	-85.080121
1.109824	15.027471	-89.138856
1.110430	15.866422	-92.517881
1.111035	16.668924	-95.802284
1.111641	17.464743	-98.987727
1.112246	18.169437	-101.572628
1.112852	18.914227	-103.843025
1.113457	19.512003	-105.831995
1.114062	20.097021	-107.429732
1.114668	20.587270	-108.734654
1.115273	21.004619	-109.645633
1.115879	21.339349	-110.255934
1.116484	21.564730	-110.430810
1.117090	21.815018	-110.248885
1.117695	21.990584	-109.633432
1.118301	22.058624	-109.002525
1.118906	22.020352	-107.719564
1.119512	21.985117	-105.853143
1.120117	21.803476	-104.017900
1.120723	21.617582	-101.813387
1.121328	21.293179	-99.130067
1.121934	20.870362	-96.188908
1.122539	20.490678	-92.985842
1.123145	19.997391	-89.482100
1.123750	19.451860	-85.590920
1.124355	18.822495	-81.494228
1.124961	18.156680	-77.097130
1.125566	17.453200	-72.592938
1.126172	16.730888	-67.512877
1.126777	15.828150	-62.355275
1.127383	14.989198	-57.216109
1.127988	14.053655	-51.571024
1.128594	13.109000	-45.765705
1.129199	12.077472	-40.024101
1.129805	11.074497	-34.082406
1.130410	9.959136	-28.022772
1.131016	8.863214	-21.885868
1.131621	7.777012	-15.640785
1.132227	6.559591	-9.392448
1.132832	5.377404	-3.140045
1.133438	4.215266	3.214572
1.134043	2.969292	9.387265
1.134648	1.750049	15.572701
1.135254	0.601275	21.933825
1.135859	-0.658671	27.857083
1.136465	-1.820810	33.805827
1.137070	-3.024866	39.832384
1.137676	-4.191865	45.611675
1.138281	-5.357041	51.184369
1.138887	-6.497310	56.569445
1.139492	-7.610850	61.846613
1.140098	-8.630835	66.851843
1.140703	-9.616800	71.670811
1.141309	-10.665945	76.218383
1.141914	-11.589338	80.626598
1.142520	-12.492076	84.735490
1.143125	-13.366870	88.319757
1.143730	-14.165726	92.042568
1.144336	-14.943321	95.329682
1.144941	-15.626753	98.099762
1.145547	-16.298036	100.706353
1.146152	-16.876979	103.049412
1.146758	-17.430407	104.948368
1.147363	-17.962573	106.513028
1.147969	-18.324641	107.781349
1.148574	-18.740167	108.724320
1.149180	-19.011718	109.273076
1.149785	-19.332476	109.378001
1.150391	-19.500752	109.199330
1.150996	-19.625896	108.835210
1.151602	-19.734638	107.865668
1.152207	-19.703048	106.481577
1.152813	-19.634401	105.190753
1.153418	-19.518977	103.261431
1.154023	-19.362850	100.929760
1.154629	-19.052420	98.461984
1.155234	-18.715868	95.616532
1.155840	-18.370203	92.414009
1.156445	-17.958321	88.942801
1.157051	-17.370265	85.188539
1.157656	-16.859361	81.149868
1.158262	-16.233641	76.825702
1.158867	-15.516189	72.184050
1.159473	-14.779297	67.432592
1.160078	-13.987123	62.576209
1.160684	-13.140881	57.131486
1.161289	-12.224778	51.867874
1.161895	-11.295310	46.443485
1.162500	-10.340934	40.710556
1.163105	-9.297865	34.837998
1.163711	-8.198905	28.938599
1.164316	-7.174060	22.869476
1.164922	-6.059306	16.719558
1.165527	-4.941514	10.479897
1.166133	-3.834050	4.294190
1.166738	-2.628171	-1.847865
1.167344	-1.437480	-8.140124
1.167949	-0.252257	-14.539477
1.168555	0.896518	-20.511809
1.169160	2.121228	-26.648442
1.169766	3.268787	-32.863701
1.170371	4.441254	-38.655464
1.170977	5.648955	-44.507416
1.171582	6.760064	-50.175004
1.172187	7.910053	-55.760441
1.172793	8.995648	-61.101595
1.173398	10.079420	-66.221240
1.174004	11.150434	-71.166009
1.174609	12.224486	-75.989315
1.175215	13.297323	-80.389938
1.175820	14.220717	-84.494221
1.176426	15.166587	-88.643240
1.177031	16.020118	-92.295288
1.177637	16.888229	-95.410509
1.178242	17.659749	-98.481266
1.178848	18.426408	-101.220437
1.179453	19.147505	-103.570545
1.180059	19.803600	-105.590965
1.180664	20.366141	-107.299863
1.181270	20.881297	-108.588789
1.181875	21.258552	-109.557789
1.182480	21.694126	-110.136639
1.183086	21.954134	-110.373873
1.183691	22.096288	-110.356793
1.184297	22.269425	-109.782822
1.184902	22.390924	-108.916579
1.185508	22.314987	-107.966830
1.186113	22.257275	-106.261998
1.186719	22.137598	-104.181931
1.187324	21.892777	-102.071768
1.187930	21.645527	-99.475751
1.188535	21.246402	-96.563331
1.189141	20.812650	-93.374093
1.189746	20.329084	-89.867910
1.190352	19.716121	-86.037462
1.190957	19.145075	-81.934534
1.191563	18.448885	-77.562380
1.192168	17.754518	-73.020772
1.192773	16.917997	-68.216445
1.193379	16.073578	-62.874749
1.193984	15.112520	-57.736126
1.194590	14.161182	-52.339662
1.195195	13.174609	-46.531903
1.195801	12.161307	-40.739056
1.196406	11.164407	-34.768080
1.197012	10.019278	-28.767551
1.197617	8.861391	-22.626851
1.198223	7.708365	-16.436264
1.198828	6.551693	-10.176541
1.199434	5.339740	-3.942303
1.200039	4.158768	2.440512
1.200645	2.921908	8.737108
1.201250	1.635232	14.717574
1.201855	0.444541	21.035047
1.202461	-0.756478	27.259254
1.203066	-1.941094	33.066470
1.203672	-3.179170	39.055341
1.204277	-4.304252	44.899159
1.204883	-5.494335	50.491374
1.205488	-6.644932	55.873197
1.206094	-7.723844	61.153619
1.206699	-8.810653	66.238289
1.207305	-9.841573	71.040989
1.207910	-10.837866	75.617571
1.208516	-11.778269	79.944177
1.209121	-12.617828	84.207882
1.209727	-13.513276	87.874570
1.210332	-14.314563	91.424404
1.210937	-15.038090	94.919471
1.211543	-15.767084	97.718832
1.212148	-16.435937	100.277705
1.212754	-17.033713	102.624288
1.213359	-17.595038	104.630339
1.213965	-18.036080	106.273083
1.214570	-18.416372	107.578547
1.215176	-18.801525	108.551342
1.215781	-19.138685	109.137785
1.216387	-19.370140	109.337875
1.216992	-19.529304	109.181978
1.217598	-19.684823	108.854460
1.218203	-19.756507	108.000959
1.218809	-19.755292	106.581622
1.219414	-19.635616	105.286189
1.220020	-19.538417	103.500563
1.220625	-19.349485	101.252127
1.221230	-19.045130	98.712503
1.221836	-18.686100	95.937272
1.222441	-18.305808	92.799277
1.223047	-17.891496	89.327527
1.223652	-17.395172	85.560793
1.224258	-16.754872	81.622709
1.224863	-16.174714	77.360360
1.225469	-15.429317	72.785675
1.226074	-14.700322	67.953694
1.226680	-13.857726	63.187866
1.227285	-13.069804	57.848339
1.227891	-12.131224	52.434253
1.228496	-11.184746	47.113705
1.229102	-10.189668	41.385114
1.229707	-9.186086	35.562714
1.230312	-8.121753	29.628069
1.230918	-7.035551	23.555692
1.231523	-5.954817	17.418517
1.232129	-4.820623	11.208680
1.232734	-3.702224	5.030836
1.233340	-2.478120	-1.209367
1.233945	-1.338458	-7.410528
1.234551	-0.156272	-13.804458
1.235156	1.012549	-19.876564
1.235762	2.177726	-25.930504
1.236367	3.409726	-32.196192
1.236973	4.545743	-38.058990
1.237578	5.676292	-43.828249
1.238184	6.913153	-49.535963
1.238789	7.999963	-55.142548
1.239395	9.076445	-60.521930
