LabVIEW Measurement	
Writer_Version	2
Reader_Version	2
Separator	Tab
Decimal_Separator	.
Multi_Headings	No
X_Columns	One
Time_Pref	Absolute
Operator	AlunosGDS-JT
Date	2019/10/09
Time	15:19:08.4651639249999940857
***End_of_Header***	
	
Channels	2		
Samples	2048	2048	
Date	2019/10/09	2019/10/09	
Time	15:38:34.2940311124999857536	15:38:34.2940311124999857536	
Y_Unit_Label	g	Newtons	
X_Dimension	Time	Time	
X0	0.0000000000000000E+0	0.0000000000000000E+0	
Delta_X	0.000605	0.000605	
***End_of_Header***			
X_Value	Acceleration (Trigger)	Force (Trigger)	Comment
0.000000	-60.487867	-5.809537
0.000605	-61.060735	-12.134060
0.001211	-61.580751	-18.733232
0.001816	-61.702250	-25.207686
0.002422	-61.650006	-31.643098
0.003027	-61.324995	-37.902280
0.003633	-61.012743	-44.159292
0.004238	-60.453847	-50.208352
0.004844	-59.613073	-56.121037
0.005449	-58.605846	-61.784829
0.006055	-57.365947	-67.210844
0.006660	-55.990577	-72.551998
0.007266	-54.414734	-77.440645
0.007871	-52.626267	-81.974932
0.008477	-50.636719	-86.485089
0.009082	-48.345854	-90.261312
0.009687	-45.870917	-93.719505
0.010293	-43.204012	-97.097446
0.010898	-40.438692	-100.033454
0.011504	-37.523929	-102.495536
0.012109	-34.456684	-104.656941
0.012715	-31.246678	-106.580028
0.013320	-28.011764	-108.017530
0.013926	-24.660819	-109.054581
0.014531	-21.158000	-109.589781
0.015137	-17.600506	-109.892627
0.015742	-14.038760	-109.876360
0.016348	-10.445424	-109.099588
0.016953	-6.734841	-108.031900
0.017559	-3.004211	-106.942521
0.018164	0.693007	-105.332855
0.018770	4.434571	-103.159249
0.019375	8.126322	-100.779047
0.019980	11.901299	-98.056143
0.020586	15.531084	-95.014396
0.021191	19.174235	-91.567319
0.021797	22.778506	-87.783504
0.022402	26.315345	-83.693319
0.023008	29.664468	-79.503632
0.023613	32.908494	-74.727230
0.024219	36.082658	-69.844819
0.024824	39.145043	-64.864803
0.025430	42.059199	-59.179593
0.026035	44.896203	-53.392981
0.026641	47.654840	-47.436104
0.027246	50.299875	-41.343935
0.027852	52.743830	-35.056557
0.028457	55.038340	-28.499138
0.029062	57.040645	-21.843844
0.029668	58.846122	-15.340108
0.030273	60.361823	-8.748256
0.030879	61.697098	-1.954417
0.031484	62.772366	4.717687
0.032090	63.604634	11.554906
0.032695	64.179933	18.433878
0.033301	64.594852	25.326949
0.033906	64.673219	31.852646
0.034512	64.615507	38.547795
0.035117	64.241897	44.830565
0.035723	63.648982	50.941441
0.036328	62.581004	56.993483
0.036934	61.234794	62.551266
0.037539	59.753113	67.896215
0.038145	57.989553	73.040804
0.038750	55.995146	78.103512
0.039355	53.939988	82.910551
0.039961	51.768799	87.387359
0.040566	49.316340	91.529872
0.041172	46.657940	95.526247
0.041777	43.802711	99.349104
0.042383	40.752476	102.275893
0.042988	37.566162	104.876249
0.043594	34.045725	107.348905
0.044199	30.474259	109.360649
0.044805	26.817136	110.877049
0.045410	23.252960	112.079215
0.046016	19.439103	112.947627
0.046621	15.693286	113.431584
0.047227	11.781622	113.244779
0.047832	7.882716	112.584591
0.048438	3.749924	111.548353
0.049043	-0.379831	110.096481
0.049648	-4.581877	107.712754
0.050254	-8.567655	105.145204
0.050859	-12.510301	102.564099
0.051465	-16.402525	99.191851
0.052070	-19.994646	95.511878
0.052676	-23.491390	91.407052
0.053281	-27.021546	87.018630
0.053887	-30.472121	82.263919
0.054492	-33.855871	77.045313
0.055098	-36.996015	71.700093
0.055703	-40.086952	66.142039
0.056309	-42.987743	60.517018
0.056914	-45.463895	54.473110
0.057520	-47.784528	48.475292
0.058125	-49.774683	42.374719
0.058730	-51.759371	35.881557
0.059336	-53.527183	29.507689
0.059941	-55.078119	23.091527
0.060547	-56.648495	16.285758
0.061152	-57.971620	9.503035
0.061758	-59.155629	2.681813
0.062363	-60.060190	-4.164082
0.062969	-60.782502	-10.886616
0.063574	-61.266676	-17.408788
0.064180	-61.464719	-23.748765
0.064785	-61.396680	-30.132392
0.065391	-61.147607	-36.509513
0.065996	-60.750912	-42.882025
0.066602	-60.247298	-48.725301
0.067207	-59.499471	-54.552310
0.067812	-58.508646	-60.524913
0.068418	-57.371415	-65.981294
0.069023	-56.053149	-71.176312
0.069629	-54.521653	-76.205672
0.070234	-52.713139	-80.990479
0.070840	-50.781911	-85.339317
0.071445	-48.644134	-89.259778
0.072051	-46.076858	-92.941920
0.072656	-43.437898	-96.419906
0.073262	-40.642203	-99.490120
0.073867	-37.882351	-101.911263
0.074473	-34.917773	-104.302039
0.075078	-31.735104	-106.536919
0.075684	-28.502013	-107.872478
0.076289	-25.199060	-108.876181
0.076895	-21.744233	-109.656207
0.077500	-18.180664	-110.005415
0.078105	-14.586113	-109.913233
0.078711	-10.956327	-109.315132
0.079316	-7.288877	-108.398731
0.079922	-3.622034	-107.254314
0.080527	0.012612	-105.754724
0.081133	3.613237	-103.738913
0.081738	7.277650	-101.527350
0.082344	11.002813	-98.877921
0.082949	14.647178	-95.719591
0.083555	18.293367	-92.452269
0.084160	21.875160	-88.764162
0.084766	25.404709	-84.662047
0.085371	28.825516	-80.433047
0.085977	32.125432	-75.899844
0.086582	35.065710	-71.037496
0.087188	38.181555	-65.848986
0.087793	41.062298	-60.576698
0.088398	43.976454	-54.896909
0.089004	46.735699	-48.888789
0.089609	49.387417	-42.793638
0.090215	51.957123	-36.467760
0.090820	54.223081	-30.161132
0.091426	56.288566	-23.499601
0.092031	58.059415	-16.760800
0.092637	59.737925	-10.322948
0.093242	61.025208	-3.753329
0.093848	62.181272	3.112087
0.094453	62.949147	9.944426
0.095059	63.662954	16.674009
0.095664	64.129511	23.540238
0.096270	64.407743	30.356309
0.096875	64.379799	37.015671
0.097480	64.121006	43.270514
0.098086	63.522015	49.374070
0.098691	62.618669	55.550287
0.099297	61.259094	61.313311
0.099902	59.802927	66.458984
0.100508	58.149325	71.790377
0.101113	56.254546	77.107130
0.101719	54.170229	81.834186
0.102324	52.135727	86.361966
0.102930	49.822991	90.625400
0.103535	47.190106	94.735377
0.104141	44.430254	98.448970
0.104746	41.483900	101.593473
0.105352	38.222257	104.255374
0.105957	34.802057	106.816416
0.106563	31.270686	108.952064
0.107168	27.702865	110.509675
0.107773	24.178176	111.977814
0.108379	20.483388	112.974739
0.108984	16.776450	113.359736
0.109590	12.904274	113.468186
0.110195	9.036957	112.965250
0.110801	4.880473	111.963174
0.111406	0.738569	110.471175
0.112012	-3.403943	108.393819
0.112617	-7.400049	105.914114
0.113223	-11.330545	103.098214
0.113828	-15.160804	99.930395
0.114434	-18.796665	96.381917
0.115039	-22.375421	92.493177
0.115645	-25.887960	88.042668
0.116250	-29.397461	83.283889
0.116855	-32.823736	78.559273
0.117461	-36.050145	73.205647
0.118066	-39.078510	67.595809
0.118672	-41.956216	61.952080
0.119277	-44.513772	56.130223
0.119883	-46.820433	50.069233
0.120488	-48.928442	43.799749
0.121094	-50.921027	37.572560
0.121699	-52.783609	31.157211
0.122305	-54.457866	24.562920
0.122910	-56.053757	17.706180
0.123516	-57.433987	10.921559
0.124121	-58.744355	4.290937
0.124727	-59.672608	-2.534353
0.125332	-60.343890	-9.442064
0.125938	-60.873019	-15.827590
0.126543	-61.232049	-22.081078
0.127148	-61.258778	-28.572613
0.127754	-61.115410	-35.074722
0.128359	-60.739977	-41.343935
0.128965	-60.278888	-47.398960
0.129570	-59.685365	-53.384848
0.130176	-58.717017	-59.236529
0.130781	-57.591936	-64.838776
0.131387	-56.368440	-70.055212
0.131992	-54.885543	-75.216881
0.132598	-53.192453	-80.061064
0.133203	-51.352957	-84.346458
0.133809	-49.209105	-88.530453
0.134414	-46.827723	-92.211782
0.135020	-44.246474	-95.606532
0.135625	-41.456247	-98.710095
0.136230	-38.828829	-101.511896
0.136836	-35.752472	-103.741625
0.137441	-32.662750	-105.790242
0.138047	-29.440593	-107.572072
0.138652	-26.132780	-108.733841
0.139258	-22.784265	-109.576225
0.139863	-19.227379	-109.927602
0.140469	-15.576331	-109.950106
0.141074	-12.073512	-109.723717
0.141680	-8.504476	-108.733299
0.142285	-4.812118	-107.495073
0.142891	-1.072983	-106.173612
0.143496	2.567130	-104.388257
0.144102	6.199953	-102.044656
0.144707	9.849786	-99.420170
0.145313	13.646633	-96.550046
0.145918	17.257587	-93.259407
0.146523	20.851530	-89.586212
0.147129	24.453979	-85.567061
0.147734	27.871141	-81.468471
0.148340	31.178954	-77.141594
0.148945	34.349473	-72.167001
0.149551	37.309799	-67.102394
0.150156	40.332089	-62.008235
0.150762	43.284517	-56.220810
0.151367	46.082641	-50.253088
0.151973	48.770201	-44.134620
0.152578	51.367245	-37.987142
0.153184	53.715215	-31.550916
0.153789	55.845702	-24.916498
0.154395	57.706460	-18.332781
0.155000	59.459693	-11.763975
0.155605	60.855717	-5.111934
0.156211	62.056128	1.703324
0.156816	63.033589	8.495265
0.157422	63.788706	15.154627
0.158027	64.342134	22.180277
0.158633	64.580272	28.863497
0.159238	64.601535	35.418476
0.159844	64.336666	41.904046
0.160449	63.845203	48.141809
0.161055	63.018401	54.280340
0.161660	61.907292	60.082406
0.162266	60.539820	65.607653
0.162871	58.976126	70.879670
0.163477	57.162144	76.038628
0.164082	55.128249	80.914532
0.164687	52.998370	85.471864
0.165293	50.627315	89.814195
0.165898	48.029057	93.708900
0.166504	45.311122	97.431711
0.167109	42.341076	100.976393
0.167715	39.273224	103.755691
0.168320	35.972701	106.239192
0.168926	32.523341	108.545106
0.169531	28.957950	110.373570
0.170137	25.337885	111.670088
0.170742	21.610292	112.688161
0.171348	17.798258	113.354043
0.171953	13.991083	113.528105
0.172559	10.053297	113.046045
0.173164	6.079669	112.121239
0.173770	1.989402	110.780257
0.174375	-2.111800	109.086813
0.174980	-6.208143	106.479137
0.175586	-10.213968	103.629618
0.176191	-14.154184	100.765730
0.176797	-17.910329	97.191223
0.177402	-21.577779	93.222502
0.178008	-25.129198	88.921382
0.178613	-28.591315	84.444845
0.179219	-31.957447	79.584395
0.179824	-35.199651	74.333797
0.180430	-38.314280	68.825359
0.181035	-41.343253	63.307703
0.181641	-44.141985	57.410744
0.182246	-46.610847	51.191418
0.182852	-48.712174	45.057767
0.183457	-50.794061	38.926556
0.184062	-52.633557	32.412789
0.184668	-54.278048	25.927761
0.185273	-55.819264	19.316389
0.185879	-57.260243	12.559965
0.186484	-58.704260	5.745791
0.187090	-59.749152	-1.063502
0.187695	-60.599646	-7.832669
0.188301	-61.253918	-14.506671
0.188906	-61.693745	-20.951030
0.189512	-61.666408	-27.346588
0.190117	-61.450140	-33.673008
0.190723	-61.046155	-40.066396
0.191328	-60.568664	-46.245325
0.191934	-60.000655	-51.910472
0.192539	-59.182966	-57.921575
0.193145	-58.164196	-63.709813
0.193750	-57.005095	-68.994844
0.194355	-55.674680	-74.085207
0.194961	-53.989487	-78.998798
0.195566	-52.092279	-83.573211
0.196172	-49.946604	-87.553320
0.196777	-47.478350	-91.180424
0.197383	-44.894064	-94.691216
0.197988	-42.185242	-98.048009
0.198594	-39.463054	-100.892105
0.199199	-36.624835	-103.130781
0.199805	-33.643247	-105.501765
0.200410	-30.411371	-107.408584
0.201016	-27.149728	-108.475188
0.201621	-23.679713	-109.305643
0.202227	-20.102780	-109.784449
0.202832	-16.482107	-109.936007
0.203437	-12.854751	-109.556704
0.204043	-9.256555	-108.736281
0.204648	-5.642564	-107.799275
0.205254	-1.993339	-106.563489
0.205859	1.667429	-104.801722
0.206465	5.355535	-102.524004
0.207070	9.095884	-100.176066
0.207676	12.901236	-97.202371
0.208281	16.698691	-93.866997
0.208887	20.319972	-90.462215
0.209492	23.907840	-86.539856
0.210098	27.369350	-82.324411
0.210703	30.581786	-78.049862
0.211309	33.799690	-73.317111
0.211914	36.906422	-68.260096
0.212520	39.941469	-62.988893
0.213125	43.024509	-57.441142
0.213730	45.830531	-51.544996
0.214336	48.648702	-45.365525
0.214941	51.277943	-39.165178
0.215547	53.594931	-32.859905
0.216152	55.774017	-26.491461
0.216758	57.636598	-19.669154
0.217363	59.324829	-13.150777
0.217969	60.848427	-6.644330
0.218574	62.140570	0.091489
0.219180	63.141115	6.950398
0.219785	63.971562	13.787345
0.220391	64.549897	20.614804
0.220996	64.893132	27.443076
0.221602	64.949629	34.120874
0.222207	64.730931	40.512906
0.222812	64.207877	46.620258
0.223418	63.467340	52.720289
0.224023	62.343474	58.813000
0.224629	61.070163	64.157408
0.225234	59.567827	69.408819
0.225840	57.846184	74.870352
0.226445	55.818972	79.855790
0.227051	53.725542	84.492834
0.227656	51.377572	88.778228
0.228262	48.880766	92.973068
0.228867	46.030397	96.764202
0.229473	43.103483	100.183625
0.230078	40.051426	103.129393
0.230684	36.724780	105.769333
0.231289	33.228036	108.072536
0.231895	29.667505	109.895849
0.232500	26.113656	111.419027
0.233105	22.354474	112.627158
0.233711	18.626274	113.156935
0.234316	14.748023	113.425891
0.234922	10.795049	113.187030
0.235527	6.687165	112.356575
0.236133	2.571383	111.067649
0.236738	-1.515847	109.318625
0.237344	-5.680836	107.004034
0.237949	-9.633202	104.322884
0.238555	-13.533931	101.332109
0.239160	-17.330170	97.848700
0.239766	-21.047435	94.056752
0.240371	-24.615257	89.863540
0.240977	-28.198265	85.175796
0.241582	-31.572903	80.531704
0.242187	-34.858846	75.353225
0.242793	-38.026935	69.811710
0.243398	-41.021888	64.299206
0.244004	-43.777488	58.617520
0.244609	-46.248779	52.577136
0.245215	-48.452166	46.388718
0.245820	-50.557137	40.139568
0.246426	-52.488366	33.819383
0.247031	-54.240383	27.304531
0.247637	-55.867863	20.542685
0.248242	-57.316133	13.757251
0.248848	-58.642903	7.169466
0.249453	-59.716347	0.270973
0.250059	-60.527354	-6.580616
0.250664	-61.104475	-12.893209
0.251270	-61.684633	-19.402367
0.251875	-61.718653	-25.859740
0.252480	-61.652436	-32.281597
0.253086	-61.417942	-38.633774
0.253691	-61.027930	-44.791555
0.254297	-60.412537	-50.812689
0.254902	-59.498864	-56.706123
0.255508	-58.412054	-62.358528
0.256113	-57.274823	-67.743333
0.256719	-55.867256	-73.084215
0.257324	-54.307815	-78.047693
0.257930	-52.475608	-82.509861
0.258535	-50.395544	-86.889064
0.259141	-48.079163	-90.666372
0.259746	-45.495485	-94.139206
0.260352	-42.803672	-97.428760
0.260957	-39.984893	-100.237340
0.261562	-37.098682	-102.726805
0.262168	-33.967650	-104.881703
0.262773	-30.786803	-106.840307
0.263379	-27.587125	-108.233887
0.263984	-24.209450	-109.171165
0.264590	-20.614291	-109.739171
0.265195	-17.089602	-109.975320
0.265801	-13.409394	-109.845452
0.266406	-9.757739	-108.890551
0.267012	-6.110336	-107.908267
0.267617	-2.419800	-106.827293
0.268223	1.286530	-105.117582
0.268828	4.888978	-102.937469
0.269434	8.571008	-100.586548
0.270039	12.360565	-97.815655
0.270645	16.125823	-94.673322
0.271250	19.703364	-91.082819
0.271855	23.313709	-87.278670
0.272461	26.922233	-83.273347
0.273066	30.216073	-78.999340
0.273672	33.464959	-74.213992
0.274277	36.509727	-69.458196
0.274883	39.511970	-64.428293
0.275488	42.448603	-58.711903
0.276094	45.267382	-52.941830
0.276699	48.106209	-46.902802
0.277305	50.747599	-40.788130
0.277910	53.260808	-34.446797
0.278516	55.464195	-27.882872
0.279121	57.445845	-21.229204
0.279727	59.185712	-14.740922
0.280332	60.701413	-8.101353
0.280938	61.935237	-1.353605
0.281543	62.947932	5.349949
0.282148	63.814828	12.226210
0.282754	64.393164	19.156154
0.283359	64.782568	25.751530
0.283965	64.932620	32.488975
0.284570	64.723034	39.096280
0.285176	64.346386	45.263008
0.285781	63.501360	51.419705
0.286387	62.443103	57.411286
0.286992	61.137595	63.068029
0.287598	59.655306	68.378275
0.288203	57.958571	73.613961
0.288809	55.990893	78.708662
0.289414	53.885314	83.496451
0.290020	51.676460	87.861827
0.290625	49.197878	91.840038
0.291230	46.451999	95.877083
0.291836	43.405409	99.474634
0.292441	40.423213	102.177746
0.293047	37.170682	104.887365
0.293652	33.741370	107.370053
0.294258	30.250701	109.416772
0.294863	26.660402	110.905517
0.295469	23.096834	112.138591
0.296074	19.234985	113.042249
0.296680	15.421128	113.412334
0.297285	11.465117	113.202755
0.297891	7.441067	112.507863
0.298496	3.345939	111.463762
0.299102	-0.690261	109.794177
0.299707	-4.764733	107.405570
0.300312	-8.728034	105.069018
0.300918	-12.739327	102.215975
0.301523	-16.564119	98.703827
0.302129	-20.325731	94.972340
0.302734	-23.862570	90.818170
0.303340	-27.377539	86.425952
0.303945	-30.897975	81.614575
0.304551	-34.114056	76.649743
0.305156	-37.286398	71.331634
0.305762	-40.305043	65.872813
0.306367	-43.048493	60.061529
0.306973	-45.513710	54.161045
0.307578	-47.869577	48.115510
0.308184	-50.032869	41.614214
0.308789	-52.002369	35.160094
0.309395	-53.743451	28.855364
0.310000	-55.315650	22.234773
0.310605	-56.757844	15.453948
0.311211	-58.062137	8.710809
0.311816	-59.137404	2.028674
0.312422	-60.062620	-4.738053
0.313027	-60.756380	-11.463569
0.313633	-61.349903	-17.925551
0.314238	-61.488412	-24.403259
0.314844	-61.483552	-30.864700
0.315449	-61.096577	-37.348372
0.316055	-60.639133	-43.389027
0.316660	-60.092387	-49.171843
0.317266	-59.201191	-55.294920
0.317871	-58.138681	-61.106475
0.318477	-57.052480	-66.454678
0.319082	-55.791926	-71.690364
0.319688	-54.388612	-76.877790
0.320293	-52.635380	-81.599696
0.320898	-50.608167	-85.829510
0.321504	-48.336134	-89.646943
0.322109	-45.737268	-93.295467
0.322715	-42.986528	-96.660936
0.323320	-40.246724	-99.476022
0.323926	-37.401215	-102.027033
0.324531	-34.439674	-104.539815
0.325137	-31.367569	-106.459648
0.325742	-28.226817	-107.938362
0.326348	-24.956669	-109.084947
0.326953	-21.467822	-109.743509
0.327559	-17.821634	-109.996197
0.328164	-14.170586	-109.903472
0.328770	-10.530473	-109.243284
0.329375	-6.925595	-108.295975
0.329980	-3.209545	-107.187889
0.330586	0.301779	-105.715954
0.331191	3.923060	-103.829198
0.331797	7.534013	-101.442217
0.332402	11.331468	-98.665360
0.333008	15.050555	-95.721218
0.333613	18.806093	-92.359545
0.334219	22.426766	-88.189920
0.334824	25.922903	-84.153689
0.335430	29.319410	-80.029884
0.336035	32.474742	-75.414802
0.336641	35.493994	-70.550828
0.337246	38.464040	-65.437961
0.337852	41.437731	-60.106296
0.338457	44.253472	-54.429490
0.339062	47.118421	-48.295569
0.339668	49.864908	-42.109591
0.340273	52.381155	-35.959130
0.340879	54.574214	-29.417708
0.341484	56.582594	-22.615193
0.342090	58.256851	-16.375804
0.342695	59.817507	-9.878846
0.343301	61.088388	-3.122693
0.343906	62.191600	3.722660
0.344512	63.164808	10.545780
0.345117	63.854315	17.356429
0.345723	64.320872	24.220761
0.346328	64.577842	30.944378
0.346934	64.542000	37.451639
0.347539	64.213952	43.663374
0.348145	63.482528	49.919302
0.348750	62.415158	55.896242
0.349355	61.215962	61.400884
0.349961	59.772553	67.009638
0.350566	58.124417	72.418031
0.351172	56.270949	77.499989
0.351777	54.306916	82.317601
0.352383	52.234748	86.905571
0.352988	49.853366	91.224314
0.353594	47.122674	95.190053
0.354199	44.208518	98.724162
0.354805	41.133375	101.778922
0.355410	37.884489	104.526769
0.356016	34.464897	106.986140
0.356621	31.018575	109.001951
0.357227	27.526691	110.815775
0.357832	23.985599	112.148352
0.358438	20.378899	112.899638
0.359043	16.569294	113.580974
0.359648	12.656416	113.476049
0.360254	8.598953	112.770583
0.360859	4.461301	111.745732
0.361465	0.334584	110.210896
0.362070	-3.728346	108.103444
0.362676	-7.718984	105.598796
0.363281	-11.557748	102.849051
0.363887	-15.264078	99.709157
0.364492	-18.924239	96.128144
0.365098	-22.526080	91.913784
0.365703	-26.119415	87.511263
0.366309	-29.669012	82.997582
0.366914	-33.032107	77.757829
0.367520	-36.281600	72.324493
0.368125	-39.279591	66.977645
0.368730	-42.111127	61.438842
0.369336	-44.577559	55.558963
0.369941	-46.856882	49.504752
0.370547	-48.969752	43.294102
0.371152	-50.958085	37.001030
0.371758	-52.870480	30.514917
0.372363	-54.636470	23.805398
0.372969	-56.193481	17.003154
0.373574	-57.610160	10.350842
0.374180	-58.781412	3.454246
0.374785	-59.608213	-3.381888
0.375391	-60.275851	-9.765787
0.375996	-60.873019	-16.210960
0.376602	-61.143354	-22.726896
0.377207	-61.117232	-29.240664
0.377812	-61.025500	-35.651675
0.378418	-60.712640	-41.952338
0.379023	-60.256411	-47.991909
0.379629	-59.599101	-53.985660
0.380234	-58.501356	-59.769017
0.380840	-57.463146	-65.294265
0.381445	-56.091422	-70.560317
0.382051	-54.674135	-75.667219
0.382656	-52.942165	-80.317819
0.383262	-51.155521	-84.977907
0.383867	-49.032324	-88.937682
0.384473	-46.657624	-92.441966
0.385078	-44.028991	-95.996681
0.385684	-41.239371	-99.044121
0.386289	-38.409050	-101.603807
0.386895	-35.453584	-103.868240
0.387500	-32.248438	-105.927702
0.388105	-29.098573	-107.647174
0.388711	-25.951747	-108.751193
0.389316	-22.525472	-109.507902
0.389922	-18.940641	-109.901846
0.390527	-15.408055	-110.073467
0.391133	-11.792849	-109.379931
0.391738	-8.152128	-108.388971
0.392344	-4.432433	-107.543604
0.392949	-0.715776	-106.012835
0.393555	2.874523	-104.060196
0.394160	6.539543	-101.719849
0.394766	10.183909	-99.261562
0.395371	13.865332	-96.349956
0.395977	17.593532	-92.987469
0.396582	21.180185	-89.286348
0.397187	24.746184	-85.359922
0.397793	28.259330	-81.205480
0.398398	31.524011	-76.629169
0.399004	34.766822	-71.774413
0.399609	37.732008	-66.964934
0.400215	40.709343	-61.429113
0.400820	43.539058	-55.725737
0.401426	46.361482	-49.853992
0.402031	49.185728	-43.692145
0.402637	51.797352	-37.515927
0.403242	54.160509	-31.047167
0.403848	56.301323	-24.344154
0.404453	58.151755	-17.769384
0.405059	59.818722	-11.249380
0.405664	61.181335	-4.478587
0.406270	62.291837	2.233644
0.406875	63.265652	8.984645
0.407480	63.994647	15.930043
0.408086	64.500690	22.623837
0.408691	64.749156	29.312209
0.409297	64.812335	36.135871
0.409902	64.532888	42.466901
0.410508	63.909597	48.599467
0.411113	62.996531	54.763484
0.411719	61.828318	60.572056
0.412324	60.460238	65.948185
0.412930	58.888647	71.225625
0.413535	57.004803	76.419016
0.414141	54.990348	81.383848
0.414746	52.814299	85.856590
0.415352	50.528293	89.956807
0.415957	47.896015	94.167100
0.416563	45.009804	97.998632
0.417168	42.122378	100.990492
0.417773	39.031441	103.821574
0.418379	35.595446	106.458532
0.418984	32.121179	108.687176
0.419590	28.584341	110.389296
0.420195	24.870720	111.677679
0.420801	21.172895	112.782512
0.421406	17.388806	113.341300
0.422012	13.523919	113.410437
0.422617	9.646883	112.935697
0.423223	5.590028	112.056440
0.423828	1.448123	110.647406
0.424434	-2.590507	108.507691
0.425039	-6.709934	106.254104
0.425645	-10.741274	103.509510
0.426250	-14.691210	100.222938
0.426855	-18.373240	96.663344
0.427461	-22.011531	92.702214
0.428066	-25.471825	88.467520
0.428672	-28.998337	83.882532
0.429277	-32.370544	78.955115
0.429883	-35.566578	73.709397
0.430488	-38.639291	68.194723
0.431094	-41.641533	62.537709
0.431699	-44.361898	56.633701
0.432305	-46.681316	50.642391
0.432910	-48.895637	44.234904
0.433516	-50.876680	37.915533
0.434121	-52.676689	31.838547
0.434727	-54.370994	25.220939
0.435332	-55.864218	18.541786
0.435937	-57.335572	11.749573
0.436543	-58.671455	4.979864
0.437148	-59.612466	-1.792827
0.437754	-60.456277	-8.589649
0.438359	-61.182842	-15.183940
0.438965	-61.428877	-21.613659
0.439570	-61.472617	-28.011927
0.440176	-61.202889	-34.478790
0.440781	-60.875449	-40.748545
0.441387	-60.390667	-46.587755
0.441992	-59.663495	-52.691040
0.442598	-58.843376	-58.717596
0.443203	-57.827644	-64.166929
0.443809	-56.720787	-69.509980
0.444414	-55.332660	-74.703914
0.445020	-53.612232	-79.595001
0.445625	-51.654274	-83.962817
0.446230	-49.478833	-87.926929
0.446836	-46.989316	-91.658417
0.447441	-44.366151	-95.221807
0.448047	-41.681021	-98.352753
0.448652	-39.059677	-101.089755
0.449258	-36.160101	-103.710174
0.449863	-33.081922	-105.852600
0.450469	-29.973367	-107.406415
0.451074	-26.684994	-108.681785
0.451680	-23.166380	-109.597915
0.452285	-19.526267	-109.996739
0.452891	-15.907416	-109.979387
0.453496	-12.323800	-109.594390
0.454102	-8.741399	-108.823854
0.454707	-5.072733	-107.870852
0.455313	-1.521922	-106.568911
0.455918	2.048937	-104.755630
0.456523	5.827559	-102.621609
0.457129	9.566086	-99.949405
0.457734	13.313118	-97.004450
0.458340	17.098423	-93.825515
0.458945	20.751901	-90.124936
0.459551	24.260795	-86.049121
0.460156	27.675527	-81.998520
0.460762	30.814457	-77.709329
0.461367	34.030538	-72.898495
0.461973	37.032781	-67.945863
0.462578	40.066006	-62.659476
0.463184	43.062174	-57.045842
0.463789	45.976330	-51.058057
0.464395	48.726462	-44.880213
0.465000	51.325328	-38.740326
0.465605	53.621053	-32.489007
0.466211	55.685930	-25.723365
0.466816	57.569774	-19.209055
0.467422	59.250714	-12.867181
0.468027	60.705666	-6.115095
0.468633	61.898787	0.644040
0.469238	62.980737	7.450080
0.469844	63.791136	14.257747
0.470449	64.388911	21.145937
0.471055	64.705416	28.008642
0.471660	64.754623	34.588021
0.472266	64.516485	40.903326
0.472871	63.955767	47.024234
0.473477	63.122283	53.366921
0.474082	62.007529	59.219416
0.474687	60.743331	64.533728
0.475293	59.203329	70.093680
0.475898	57.403928	75.421277
0.476504	55.478167	80.296639
0.477109	53.345858	84.855598
0.477715	50.984523	89.174341
0.478320	48.395377	93.319022
0.478926	45.577205	97.080062
0.479531	42.616272	100.369074
0.480137	39.546597	103.276343
0.480742	36.365751	105.988131
0.481348	32.883586	108.238193
0.481953	29.425114	110.015144
0.482559	25.834816	111.659243
0.483164	22.076849	112.681925
0.483770	18.349864	113.217396
0.484375	14.494090	113.534069
0.484980	10.523499	113.117080
0.485586	6.479401	112.282016
0.486191	2.379414	111.024269
0.486797	-1.753378	109.227527
0.487402	-5.672939	106.922426
0.488008	-9.592500	104.249409
0.488613	-13.608653	101.175128
0.489219	-17.375125	97.724797
0.489824	-21.025566	93.922004
0.490430	-24.623154	89.550662
0.491035	-28.217705	84.938562
0.491641	-31.662205	80.289047
0.492246	-34.856416	75.012421
0.492852	-37.991700	69.512931
0.493457	-40.931371	64.101556
0.494063	-43.547247	58.388419
0.494668	-45.953536	52.348035
0.495273	-48.195195	46.079907
0.495879	-50.330542	39.777074
0.496484	-52.341959	33.396971
0.497090	-54.015002	26.862869
0.497695	-55.610285	20.069844
0.498301	-57.054302	13.389064
0.498906	-58.299060	6.803990
0.499512	-59.364000	-0.214340
0.500117	-60.035282	-6.864212
0.500723	-60.795867	-13.228861
0.501328	-61.248451	-19.841318
0.501934	-61.348080	-26.351560
0.502539	-61.244199	-32.784262
0.503145	-60.947741	-39.065946
0.503750	-60.538896	-45.216949
0.504355	-59.851819	-51.231847
0.504961	-59.059645	-57.139380
0.505566	-57.913908	-62.728342
0.506172	-56.823454	-68.099591
0.506777	-55.390979	-73.475990
0.507383	-53.826071	-78.328578
0.507988	-52.165178	-82.914107
0.508594	-50.053524	-87.217667
0.509199	-47.680039	-90.961084
0.509805	-45.017993	-94.424971
0.510410	-42.343798	-97.615836
0.511016	-39.559646	-100.417909
0.511621	-36.674650	-102.894903
0.512227	-33.621378	-105.117039
0.512832	-30.509786	-107.026570
0.513437	-27.324079	-108.322003
0.514043	-23.988321	-109.300762
0.514648	-20.432042	-109.844638
0.515254	-16.811977	-110.114678
0.515859	-13.218033	-109.847350
0.516465	-9.572453	-108.859372
0.517070	-5.932340	-108.021597
0.517676	-2.227224	-106.823226
0.518281	1.376439	-105.050343
0.518887	5.058469	-102.918219
0.519492	8.729565	-100.525274
0.520098	12.522767	-97.753839
0.520703	16.181105	-94.535319
0.521309	19.884397	-90.921500
0.521914	23.471051	-87.128739
0.522520	26.914943	-83.075698
0.523125	30.282898	-78.728758
0.523730	33.418790	-73.875899
0.524336	36.528559	-69.120103
0.524941	39.565429	-63.953283
0.525547	42.441313	-58.168840
0.526152	45.294112	-52.436454
0.526758	48.087376	-46.460869
0.527363	50.794984	-40.235578
0.527969	53.148422	-33.862524
0.528574	55.298956	-27.288296
0.529180	57.341356	-20.763683
0.529785	58.954256	-14.310919
0.530391	60.530100	-7.625530
0.530996	61.742053	-0.837113
0.531602	62.800310	5.872135
0.532207	63.713376	12.689833
0.532813	64.315404	19.728227
0.533418	64.651349	26.308962
0.534023	64.759483	32.953683
0.534629	64.628872	39.491580
0.535234	64.193905	45.727716
0.535840	63.303924	51.871127
0.536445	62.242022	57.896599
0.537051	61.000909	63.477698
0.537656	59.558107	68.829155
0.538262	57.851652	74.091682
0.538867	55.907059	79.221359
0.539473	53.804517	83.893920
0.540078	51.561036	88.266074
0.540684	49.054509	92.239133
0.541289	46.250918	96.257742
0.541895	43.322789	99.753622
0.542500	40.267087	102.423656
0.543105	37.050398	105.132462
0.543711	33.631413	107.657987
0.544316	30.114622	109.620657
0.544922	26.589933	111.082019
0.545527	22.884818	112.269816
0.546133	19.059418	113.106506
0.546738	15.213364	113.376004
0.547344	11.328430	113.092407
0.547949	7.380925	112.381519
0.548555	3.303415	111.395439
0.549160	-0.826947	109.569415
0.549766	-4.710059	107.177825
0.550371	-8.817943	104.757496
0.550977	-12.790356	101.842636
0.551582	-16.632158	98.377393
0.552187	-20.296571	94.552097
0.552793	-23.878972	90.393860
0.553398	-27.485673	85.943892
0.554004	-30.884003	81.145259
0.554609	-34.080644	76.086888
0.555215	-37.223826	70.785861
0.555820	-40.200554	65.310229
0.556426	-42.988351	59.474002
0.557031	-45.473615	53.506822
0.557637	-47.772378	47.433089
0.558242	-50.009177	40.994966
0.558848	-51.940405	34.463575
0.559453	-53.652327	28.172943
0.560059	-55.254900	21.528494
0.560664	-56.688590	14.784542
0.561270	-57.967975	8.065533
0.561875	-59.117964	1.318327
0.562480	-59.944766	-5.397970
0.563086	-60.733295	-12.078479
0.563691	-61.290368	-18.594145
0.564297	-61.374810	-25.020339
0.564902	-61.400325	-31.511603
0.565508	-60.958068	-37.977381
0.566113	-60.626983	-44.043522
0.566719	-59.990328	-49.794616
0.567324	-59.100954	-55.891936
0.567930	-58.090689	-61.667160
0.568535	-56.993552	-66.987709
0.569141	-55.757299	-72.314222
0.569746	-54.330292	-77.458539
0.570352	-52.552153	-82.137336
0.570957	-50.483631	-86.239179
0.571562	-48.155100	-90.047394
0.572168	-45.466325	-93.669347
0.572773	-42.728950	-96.985743
0.573379	-39.993398	-99.737386
0.573984	-37.297940	-102.268334
0.574590	-34.245275	-104.847270
0.575195	-31.188358	-106.678175
0.575801	-28.142983	-108.127064
0.576406	-24.682689	-109.197193
0.577012	-21.157392	-109.832980
0.577617	-17.434660	-110.037679
0.578223	-13.928196	-109.821050
0.578828	-10.271680	-109.100130
0.579434	-6.620632	-108.224669
0.580039	-3.038838	-107.119837
0.580645	0.500430	-105.533758
0.581250	4.096196	-103.596031
0.581855	7.803741	-101.285236
0.582461	11.569606	-98.401284
0.583066	15.225514	-95.476392
0.583672	19.081896	-91.903784
0.584277	22.677054	-87.849930
0.584883	26.209033	-83.896392
0.585488	29.522921	-79.650852
0.586094	32.640588	-75.094333
0.586699	35.704188	-70.177489
0.587305	38.712506	-65.106918
0.587910	41.660074	-59.745972
0.588516	44.635587	-53.938755
0.589121	47.520583	-47.767689
0.589727	50.217256	-41.624549
0.590332	52.659388	-35.457279
0.590938	54.885251	-28.805780
0.591543	56.784282	-22.095176
0.592148	58.583076	-15.847924
0.592754	60.081160	-9.295657
0.593359	61.379986	-2.411533
0.593965	62.520862	4.433548
0.594570	63.434536	11.185092
0.595176	64.156848	18.024480
0.595781	64.574197	24.949272
0.596387	64.662284	31.623003
0.596992	64.610647	38.030490
0.597598	64.237645	44.179052
0.598203	63.476453	50.469142
0.598809	62.455860	56.519829
0.599414	61.219607	61.907616
0.600020	59.893444	67.491155
0.600625	58.169372	73.001491
0.601230	56.295248	78.008890
0.601836	54.309953	82.771464
0.602441	52.082874	87.304666
0.603047	49.638313	91.501132
0.603652	46.982342	95.490459
0.604258	44.099776	99.003962
0.604863	41.131553	102.046251
0.605469	37.839535	104.755327
0.606074	34.438775	107.254825
0.606680	30.805344	109.245421
0.607285	27.360237	110.993090
0.607891	23.780874	112.249481
0.608496	20.030804	112.989651
0.609102	16.283771	113.529189
0.609707	12.423137	113.496383
0.610313	8.431284	112.838364
0.610918	4.276623	111.703436
0.611523	0.179065	110.153417
0.612129	-3.838910	108.009093
0.612734	-7.878755	105.441001
0.613340	-11.871823	102.570606
0.613945	-15.673530	99.326329
0.614551	-19.301493	95.684042
0.615156	-22.879642	91.449619
0.615762	-26.392181	87.068517
0.616367	-29.891963	82.540466
0.616973	-33.237440	77.394793
0.617578	-36.438942	71.940309
0.618184	-39.447867	66.495857
0.618789	-42.297628	60.919367
0.619395	-44.750088	54.982282
0.620000	-47.115675	48.786272
0.620605	-49.162328	42.585925
0.621211	-51.168278	36.356838
0.621816	-52.947632	29.843613
0.622422	-54.600628	23.214617
0.623027	-56.098712	16.487475
0.623633	-57.537868	9.805068
0.624238	-58.745570	2.839065
0.624844	-59.585736	-4.023098
0.625449	-60.356040	-10.454714
0.626055	-60.968396	-16.967397
0.626660	-61.116017	-23.546777
0.627266	-61.082605	-29.930947
0.627871	-60.858439	-36.285022
0.628477	-60.543149	-42.510584
0.629082	-60.093602	-48.618478
0.629687	-59.269838	-54.572373
0.630293	-58.317285	-60.290390
0.630898	-57.303375	-65.805063
0.631504	-56.065299	-71.219963
0.632109	-54.507681	-76.347742
0.632715	-52.892958	-80.913750
0.633320	-50.952617	-85.322507
0.633926	-48.648387	-89.261947
0.634531	-46.191067	-92.866276
0.635137	-43.527807	-96.279463
0.635742	-40.819592	-99.282168
0.636348	-38.002028	-101.922650
0.636953	-35.075114	-104.309359
0.637559	-31.960485	-106.308903
0.638164	-28.822163	-107.909893
0.638770	-25.514350	-109.018522
0.639375	-22.018213	-109.776586
0.639980	-18.455860	-110.084584
0.640586	-14.863739	-110.145587
0.641191	-11.301992	-109.507359
0.641797	-7.694684	-108.504198
0.642402	-3.989569	-107.612470
0.643008	-0.326978	-106.049708
0.643613	3.268787	-104.061823
0.644219	6.942313	-101.751841
0.644824	10.759207	-99.117053
0.645430	14.425443	-96.133056
0.646035	18.074668	-92.707397
0.646641	21.688659	-88.992178
0.647246	25.251620	-85.035115
0.647852	28.529666	-80.875251
0.648457	31.787664	-76.288908
0.649062	34.881032	-71.355254
0.649668	38.015101	-66.482061
0.650273	40.941407	-60.929702
0.650879	43.823365	-55.097270
0.651484	46.691959	-49.187839
0.652090	49.463961	-43.101907
0.652695	51.956515	-36.891527
0.653301	54.195136	-30.323264
0.653906	56.222956	-23.756356
0.654512	58.055163	-17.313081
0.655117	59.720916	-10.690864
0.655723	61.030676	-3.916817
0.656328	62.221367	2.783213
0.656934	63.254109	9.565936
0.657539	63.992824	16.535735
0.658145	64.467886	23.403049
0.658750	64.659247	29.891873
0.659355	64.637984	36.573738
0.659961	64.325732	42.950587
0.660566	63.686039	49.151206
0.661172	62.753533	55.280247
0.661777	61.639386	61.013718
0.662383	60.372758	66.516462
0.662988	58.728268	71.785226
0.663594	56.866902	76.990546
0.664199	54.864596	81.856419
0.664805	52.652098	86.317773
0.665410	50.245201	90.456489
0.666016	47.559463	94.446901
0.666621	44.764984	98.337809
0.667227	41.815593	101.341869
0.667832	38.772648	104.083481
0.668438	35.450862	106.753786
0.669043	31.997250	108.958842
0.669648	28.430037	110.623276
0.670254	24.795999	111.869907
0.670859	21.051396	112.925666
0.671465	17.274597	113.454359
0.672070	13.438262	113.412606
0.672676	9.523561	112.862223
0.673281	5.550541	111.974832
0.673887	1.488826	110.699462
0.674492	-2.652471	108.469463
0.675098	-6.593295	105.934719
0.675703	-10.552950	103.370423
0.676309	-14.583076	100.180643
0.676914	-18.305808	96.509345
0.677520	-21.909472	92.422142
0.678125	-25.373411	88.141357
0.678730	-28.888988	83.598665
0.679336	-32.144556	78.708934
0.679941	-35.314468	73.426343
0.680547	-38.381105	67.955049
0.681152	-41.371805	62.400249
0.681758	-44.041748	56.360408
0.682363	-46.405513	50.187173
0.682969	-48.726754	44.042406
0.683574	-50.698684	37.587201
0.684180	-52.504768	31.274066
0.684785	-54.058742	24.851939
0.685391	-55.533133	18.119374
0.685996	-57.060377	11.342073
0.686602	-58.327005	4.601103
0.687207	-59.308718	-2.214155
0.687813	-60.222999	-8.996878
0.688418	-60.874234	-15.615028
0.689023	-61.174337	-22.132320
0.689629	-61.207141	-28.573697
0.690234	-60.881524	-34.852671
0.690840	-60.518849	-41.275612
0.691445	-60.029208	-47.186940
0.692051	-59.264978	-53.013678
0.692656	-58.459439	-59.047013
0.693262	-57.506886	-64.653055
0.693867	-56.375730	-69.987702
0.694473	-55.007650	-75.238300
0.695078	-53.335214	-80.093870
0.695684	-51.336554	-84.372215
0.696289	-49.161113	-88.290236
0.696895	-46.648511	-92.020368
0.697500	-43.937259	-95.533329
0.698105	-41.360263	-98.682983
0.698711	-38.686068	-101.277373
0.699316	-35.827801	-103.793952
0.699922	-32.842568	-106.203707
0.700527	-29.741911	-107.702212
0.701133	-26.501530	-108.807587
0.701738	-22.970159	-109.629908
0.702344	-19.353738	-110.075636
0.702949	-15.740355	-110.034154
0.703555	-12.166459	-109.499768
0.704160	-8.618685	-108.756073
0.704766	-4.958524	-107.815271
0.705371	-1.509772	-106.500317
0.705977	2.087816	-104.606241
0.706582	5.823306	-102.415283
0.707187	9.571553	-99.970282
0.707793	13.472282	-96.717872
0.708398	17.165247	-93.452719
0.709004	20.798071	-89.930269
0.709609	24.371359	-85.863943
0.710215	27.669452	-81.694318
0.710820	30.844831	-77.359036
0.711426	33.949741	-72.636047
0.712031	37.061333	-67.567644
0.712637	40.053248	-62.254145
0.713242	43.075539	-56.559445
0.713848	46.068669	-50.532617
0.714453	48.852821	-44.381072
0.715059	51.386077	-38.156595
0.715664	53.737085	-31.902565
0.716270	55.695043	-25.224225
0.716875	57.556409	-18.616106
0.717480	59.259826	-12.270436
0.718086	60.642486	-5.622190
0.718691	61.921872	1.274947
0.719297	62.998354	8.108642
0.719902	63.857353	14.922544
0.720508	64.383444	21.873635
0.721113	64.661069	28.697298
0.721719	64.716959	35.279118
0.722324	64.456343	41.528539
0.722930	63.867072	47.637246
0.723535	63.084618	53.891005
0.724141	61.926124	59.704458
0.724746	60.725713	64.938517
0.725352	59.188750	70.494673
0.725957	57.459210	75.874597
0.726562	55.508542	80.780325
0.727168	53.475862	85.346334
0.727773	51.055600	89.662366
0.728379	48.484679	93.787797
0.728984	45.725434	97.494883
0.729590	42.785156	100.748378
0.730195	39.735528	103.668931
0.730801	36.392480	106.289892
0.731406	32.977748	108.558663
0.732012	29.542968	110.263765
0.732617	25.919258	111.858520
0.733223	22.242695	112.901807
0.733828	18.489588	113.376004
0.734434	14.597364	113.604833
0.735039	10.686308	113.158291
0.735645	6.554123	112.286083
0.736250	2.461426	110.891418
0.736855	-1.571129	109.080306
0.737461	-5.558122	106.717456
0.738066	-9.545723	104.007295
0.738672	-13.456779	100.969344
0.739277	-17.190446	97.382366
0.739883	-20.856682	93.528873
0.740488	-24.539320	89.202267
0.741094	-28.025736	84.503408
0.741699	-31.368784	79.803192
0.742305	-34.703327	74.565608
0.742910	-37.746880	69.045241
0.743516	-40.789825	63.549275
0.744121	-43.507760	57.688918
0.744727	-45.875777	51.647449
0.745332	-48.111968	45.438968
0.745938	-50.175023	39.137491
0.746543	-52.118401	32.741934
0.747148	-53.912943	26.115108
0.747754	-55.480281	19.385525
0.748359	-56.924905	12.650520
0.748965	-58.167841	6.039148
0.749570	-59.210911	-0.916010
0.750176	-60.014628	-7.710663
0.750781	-60.766707	-13.999397
0.751387	-61.167654	-20.526720
0.751992	-61.308593	-27.111251
0.752598	-61.194991	-33.479696
0.753203	-60.902179	-39.747282
0.753809	-60.597823	-45.911028
0.754414	-59.873689	-51.945990
0.755020	-59.013475	-57.844304
0.755625	-58.037230	-63.402086
0.756230	-56.847146	-68.751374
0.756836	-55.420139	-74.148108
0.757441	-53.832753	-79.066850
0.758047	-52.131766	-83.392913
0.758652	-50.023756	-87.632759
0.759258	-47.611999	-91.514720
0.759863	-45.006451	-94.944175
0.760469	-42.324358	-98.035266
0.761074	-39.555394	-100.798839
0.761680	-36.717782	-103.300505
0.762285	-33.527216	-105.451878
0.762891	-30.444784	-107.285765
0.763496	-27.199542	-108.587976
0.764102	-23.886262	-109.564838
0.764707	-20.351246	-110.115492
0.765312	-16.690478	-110.139893
0.765918	-13.076487	-109.963391
0.766523	-9.404176	-109.041025
0.767129	-5.708781	-107.910436
0.767734	-2.083248	-106.671668
0.768340	1.547145	-104.961956
0.768945	5.177538	-102.812752
0.769551	8.848026	-100.344163
0.770156	12.619358	-97.524739
0.770762	16.292884	-94.298085
0.771367	20.029589	-90.676674
0.771973	23.669702	-86.810438
0.772578	27.107519	-82.734623
0.773184	30.408650	-78.393377
0.773789	33.628376	-73.541060
0.774395	36.700481	-68.576770
0.775000	39.731883	-63.572353
0.775605	42.604729	-57.912085
0.776211	45.432621	-51.906405
0.776816	48.279953	-45.923229
0.777422	50.994243	-39.761652
0.778027	53.385952	-33.352810
0.778633	55.546206	-26.661727
0.779238	57.502342	-20.126270
0.779844	59.248892	-13.605995
0.780449	60.687441	-6.979169
0.781055	61.972901	-0.168791
0.781660	62.997746	6.518767
0.782266	63.901092	13.239132
0.782871	64.443586	20.401700
0.783477	64.723641	27.156497
0.784082	64.901637	33.680025
0.784687	64.802616	40.249102
0.785293	64.334237	46.489576
0.785898	63.516548	52.688297
0.786504	62.481375	58.575224
0.787109	61.162502	64.063327
0.787715	59.556284	69.352967
0.788320	57.814595	74.533615
0.788926	55.865749	79.568670
0.789531	53.741337	84.243941
0.790137	51.367245	88.639142
0.790742	49.064229	92.710348
0.791348	46.320780	96.644636
0.791953	43.374426	100.272825
0.792559	40.334519	102.971870
0.793164	37.063155	105.673626
0.793770	33.585244	108.041628
0.794375	30.046582	109.968510
0.794980	26.501846	111.387576
0.795586	22.889678	112.539856
0.796191	19.100121	113.336962
0.796797	15.269254	113.594801
0.797402	11.436565	113.246406
0.798008	7.471441	112.430321
0.798613	3.274255	111.388661
0.799219	-0.870687	109.620929
0.799824	-4.845530	107.140952
0.800430	-8.915143	104.612716
0.801035	-12.913678	101.795189
0.801641	-16.688655	98.326422
0.802246	-20.311758	94.437140
0.802852	-23.903272	90.252604
0.803457	-27.374501	85.903495
0.804063	-30.834796	80.963334
0.804668	-34.074569	75.764250
0.805273	-37.243873	70.307597
0.805879	-40.295323	64.804040
0.806484	-43.108635	59.040745
0.807090	-45.558057	52.869950
0.807695	-47.750508	46.970009
0.808301	-49.790478	40.662025
0.808906	-51.723529	34.196246
0.809512	-53.392319	27.812619
0.810117	-55.012510	21.228630
0.810723	-56.520313	14.438587
0.811328	-57.917553	7.578593
0.811934	-59.004970	0.762251
0.812539	-59.820229	-6.115637
0.813145	-60.530999	-12.682003
0.813750	-61.003630	-19.259213
0.814355	-61.083820	-25.695168
0.814961	-60.993910	-31.952994
0.815566	-60.669508	-38.427448
0.816172	-60.370620	-44.601768
0.816777	-59.754620	-50.408442
0.817383	-58.948473	-56.410326
0.817988	-57.930918	-62.157896
0.818594	-56.820416	-67.527518
0.819199	-55.536171	-72.826105
0.819805	-53.829108	-77.809645
0.820410	-52.046109	-82.391650
0.821016	-50.088758	-86.531722
0.821621	-47.751723	-90.422902
0.822227	-45.177157	-94.139206
0.822832	-42.561282	-97.504675
0.823438	-39.925359	-100.264994
0.824043	-37.073775	-102.736566
0.824648	-33.998025	-105.255313
0.825254	-30.859095	-107.084048
0.825859	-27.735354	-108.267778
0.826465	-24.325481	-109.278259
0.827070	-20.791072	-109.998908
0.827676	-17.234794	-110.168632
0.828281	-13.644495	-109.856026
0.828887	-10.083356	-109.208038
0.829492	-6.423196	-108.357520
0.830098	-2.737521	-107.175959
0.830703	0.848525	-105.439407
0.831309	4.504433	-103.429560
0.831914	8.266046	-101.125544
0.832520	11.980881	-98.217191
0.833125	15.584544	-95.043678
0.833730	19.255032	-91.666008
0.834336	22.831358	-87.789740
0.834941	26.391282	-83.725583
0.835547	29.672972	-79.365087
0.836152	32.864754	-74.684121
0.836758	35.949009	-69.820689
0.837363	39.008356	-64.616725
0.837969	41.900642	-59.180948
0.838574	44.759516	-53.373189
0.839180	47.516331	-47.324943
0.839785	50.217256	-41.122155
0.840391	52.517841	-34.889544
0.840996	54.699965	-28.467959
0.841602	56.770310	-21.593867
0.842207	58.534477	-15.095282
0.842812	60.130975	-8.637366
0.843418	61.385453	-1.834309
0.844023	62.503245	5.018364
0.844629	63.349486	11.783193
0.845234	63.994647	18.569440
0.845840	64.354284	25.445430
0.846445	64.557187	32.167692
0.847051	64.484895	38.663023
0.847656	64.142875	44.818906
0.848262	63.433928	51.029286
0.848867	62.467403	57.171612
0.849473	61.140633	62.745933
0.850078	59.722131	67.878592
0.850684	57.999273	73.354766
0.851289	56.095990	78.550597
0.851895	54.054805	83.155647
0.852500	51.878756	87.561421
0.853105	49.467606	91.859017
0.853711	46.787336	95.863255
0.854316	43.876825	99.380825
0.854922	40.912854	102.323882
0.855527	37.663968	105.060614
0.856133	34.218861	107.539777
0.856738	30.723940	109.476690
0.857344	27.236915	110.952964
0.857949	23.603485	112.370674
0.858555	19.896547	113.236375
0.859160	16.111243	113.436736
0.859766	12.224486	113.326659
0.860371	8.276981	112.675147
0.860977	4.192788	111.610169
0.861582	0.025976	110.001316
0.862187	-3.962839	107.816595
0.862793	-7.943150	105.239014
0.863398	-11.928928	102.376752
0.864004	-15.702690	99.058187
0.864609	-19.359205	95.397734
0.865215	-22.920952	91.379126
0.865820	-26.466903	86.800104
0.866426	-29.859765	82.071149
0.867031	-33.219823	77.162710
0.867637	-36.426792	71.706871
0.868242	-39.467307	66.107607
0.868848	-42.284871	60.489635
0.869453	-44.723966	54.576679
0.870059	-47.050066	48.402089
0.870664	-49.133775	42.155108
0.871270	-51.115426	35.844684
0.871875	-52.908145	29.371856
0.872480	-54.566608	22.761026
0.873086	-56.034925	15.887205
0.873691	-57.408472	9.193953
0.874297	-58.649585	2.550046
0.874902	-59.398627	-4.468555
0.875508	-60.198091	-11.146082
0.876113	-60.731472	-17.466809
0.876719	-60.916758	-23.961326
0.877324	-60.965966	-30.440932
0.877930	-60.629413	-36.735902
0.878535	-60.368798	-42.961193
0.879141	-59.857286	-49.062851
0.879746	-59.016513	-55.044943
0.880352	-58.113774	-60.731239
0.880957	-56.965000	-66.111434
0.881563	-55.719634	-71.472922
0.882168	-54.151688	-76.760122
0.882773	-52.447056	-81.333722
0.883379	-50.514005	-85.415774
0.883984	-48.286927	-89.575909
0.884590	-45.754885	-93.348336
0.885195	-43.120785	-96.656327
0.885801	-40.446590	-99.560071
0.886406	-37.675195	-102.189165
0.887012	-34.661410	-104.541442
0.887617	-31.526733	-106.510891
0.888223	-28.415749	-108.016445
0.888828	-25.086066	-109.036958
0.889434	-21.634884	-109.909166
0.890039	-18.001453	-110.079161
0.890645	-14.535084	-109.868497
0.891250	-10.924738	-109.527965
0.891855	-7.259717	-108.567913
0.892461	-3.654231	-107.309081
0.893066	-0.040848	-105.786988
0.893672	3.530618	-103.802356
0.894277	7.252743	-101.495086
0.894883	11.014963	-98.814478
0.895488	14.743770	-95.755380
0.896094	18.372948	-92.302880
0.896699	21.935910	-88.605554
0.897305	25.451486	-84.598062
0.897910	28.785422	-80.405392
0.898516	31.987530	-75.935361
0.899121	35.129497	-70.885395
0.899727	38.192490	-65.825940
0.900332	41.115150	-60.621975
0.900937	44.053606	-54.647203
0.901543	46.911873	-48.584587
0.902148	49.682660	-42.563453
0.902754	52.123577	-36.333824
0.903359	54.334860	-29.759867
0.903965	56.427682	-23.146055
0.904570	58.272039	-16.716607
0.905176	59.815685	-10.160273
0.905781	61.114510	-3.340406
0.906387	62.333754	3.514436
0.906992	63.371356	10.221515
0.907598	64.017124	16.916665
0.908203	64.480035	24.133187
0.908809	64.628264	30.876055
0.909414	64.618544	37.219285
0.910020	64.319049	43.546790
0.910625	63.700011	49.784010
0.911230	62.757178	55.901936
0.911836	61.664901	61.532651
0.912441	60.210557	66.897392
0.913047	58.603731	72.198691
0.913652	56.715635	77.394251
0.914258	54.683563	82.064913
0.914863	52.472279	86.447100
0.915469	50.093934	90.908454
0.916074	47.434926	94.867957
0.916680	44.752226	98.451681
0.917285	41.779751	101.775940
0.917891	38.683953	104.611089
0.918496	35.261931	107.053650
0.919102	31.856311	109.161644
0.919707	28.312183	110.818215
0.920312	24.630152	112.059423
0.920918	20.852745	112.997243
0.921523	17.097815	113.460595
0.922129	13.277884	113.378986
0.922734	9.326733	112.850564
0.923340	5.265625	111.758475
0.923945	1.162601	110.410986
0.924551	-2.931919	108.465396
0.925156	-6.943820	105.708872
0.925762	-10.952075	102.969701
0.926367	-14.909301	99.893793
0.926973	-18.589509	96.249337
0.927578	-22.137890	92.136106
0.928184	-25.720898	87.838511
0.928789	-29.186660	83.230749
0.929395	-32.499941	78.113273
0.930000	-35.657703	72.784591
0.930605	-38.816679	67.265851
0.931211	-41.751490	61.664960
0.931816	-44.294466	55.726247
0.932422	-46.669166	49.439411
0.933027	-48.786288	43.408788
0.933633	-50.821398	37.283271
0.934238	-52.666969	30.709585
0.934844	-54.307815	24.059170
0.935449	-55.880621	17.438309
0.936055	-57.285758	10.634167
0.936660	-58.473412	3.862831
0.937266	-59.435077	-3.027799
0.937871	-60.214494	-9.731083
0.938477	-60.907646	-16.252442
0.939082	-61.134849	-22.791424
0.939688	-61.181627	-29.323357
0.940293	-60.896104	-35.510690
0.940898	-60.581421	-41.722967
0.941504	-60.080237	-48.020377
0.942109	-59.271661	-53.842777
0.942715	-58.467337	-59.551033
0.943320	-57.419407	-65.080619
0.943926	-56.277923	-70.451325
0.944531	-54.716659	-75.594015
0.945137	-53.095254	-80.389396
0.945742	-51.178605	-84.669097
0.946348	-48.944237	-88.617755
0.946953	-46.487525	-92.451998
0.947559	-43.817582	-95.855967
0.948164	-41.205352	-98.983117
0.948770	-38.395685	-101.745334
0.949375	-35.450547	-103.920296
0.949980	-32.420359	-106.166563
0.950586	-29.266242	-107.883866
0.951191	-25.976654	-108.872657
0.951797	-22.415515	-109.654580
0.952402	-18.856199	-110.027647
0.953008	-15.326650	-109.944412
0.953613	-11.706584	-109.416262
0.954219	-8.061611	-108.660637
0.954824	-4.409956	-107.632262
0.955430	-0.784423	-106.161682
0.956035	2.847186	-104.264624
0.956641	6.523748	-101.979044
0.957246	10.265921	-99.569018
0.957852	13.985616	-96.582038
0.958457	17.685264	-92.944631
0.959063	21.288927	-89.427604
0.959668	24.871935	-85.581431
0.960273	28.214376	-81.289800
0.960879	31.515506	-76.818143
0.961484	34.627706	-72.042555
0.962090	37.741120	-67.001807
0.962695	40.762196	-61.584196
0.963301	43.591302	-55.967851
0.963906	46.465971	-50.077941
0.964512	49.261058	-43.980350
0.965117	51.782164	-37.708426
0.965723	53.960643	-31.204690
0.966328	56.083232	-24.760059
0.966934	58.028433	-18.153567
0.967539	59.613389	-11.449741
0.968145	61.076238	-4.761370
0.968750	62.328894	1.981227
0.969355	63.282054	8.799467
0.969961	64.038386	15.622316
0.970566	64.515270	22.479328
0.971172	64.674434	29.182611
0.971777	64.689621	35.738674
0.972383	64.452091	42.116608
0.972988	63.907167	48.341899
0.973594	63.097376	54.320466
0.974199	61.996594	60.256739
0.974805	60.630336	65.899112
0.975410	59.025333	70.969141
0.976016	57.184014	76.136775
0.976621	55.161054	81.158273
0.977227	53.026923	85.713708
0.977832	50.637035	89.953011
0.978437	48.030272	94.049974
0.979043	45.269812	97.841380
0.979648	42.443136	101.152895
0.980254	39.312104	103.885831
0.980859	35.983028	106.468021
0.981465	32.474742	108.798066
0.982070	28.921501	110.517809
0.982676	25.172038	111.616405
0.983281	21.481503	112.835381
0.983887	17.777603	113.595615
0.984492	13.974681	113.545185
0.985098	10.068485	113.107048
0.985703	6.096072	112.293946
0.986309	2.022814	110.981974
0.986914	-2.037686	109.023641
0.987520	-6.153468	106.550714
0.988125	-10.213360	103.761385
0.988730	-14.157221	100.680596
0.989336	-17.941311	97.078707
0.989941	-21.472682	93.076637
0.990547	-24.939052	89.004617
0.991152	-28.342849	84.441862
0.991758	-31.721739	79.247658
0.992363	-34.907446	74.081651
0.992969	-38.108947	68.665124
0.993574	-41.147639	63.077247
0.994180	-43.914174	57.186795
0.994785	-46.212330	51.098965
0.995391	-48.413286	44.904582
0.995996	-50.358486	38.662210
0.996602	-52.154243	32.318438
0.997207	-53.834576	25.700287
0.997812	-55.324155	19.174862
0.998418	-56.839856	12.316224
0.999023	-58.079147	5.435082
0.999629	-59.335448	-1.290433
1.000234	-60.023740	-8.059058
1.000840	-60.695630	-14.651722
1.001445	-61.006668	-21.127261
1.002051	-61.049800	-27.485403
1.002656	-60.857224	-33.870929
1.003262	-60.463567	-40.069921
1.003867	-60.095425	-46.189473
1.004473	-59.334840	-52.303603
1.005078	-58.477664	-58.110277
1.005684	-57.565813	-63.704119
1.006289	-56.451059	-69.175955
1.006895	-54.957835	-74.321628
1.007500	-53.336429	-79.433410
1.008105	-51.424034	-83.859790
1.008711	-49.292939	-87.642248
1.009316	-46.836227	-91.538308
1.009922	-44.245259	-95.185205
1.010527	-41.698638	-98.242134
1.011133	-38.907196	-100.909729
1.011738	-36.068977	-103.571087
1.012344	-32.965890	-105.789157
1.012949	-29.842755	-107.448439
1.013555	-26.568962	-108.653317
1.014160	-23.061283	-109.560500
1.014766	-19.462480	-110.179477
1.015371	-15.875219	-110.128235
1.015977	-12.368147	-109.504377
1.016582	-8.742006	-108.958603
1.017187	-5.133483	-108.124082
1.017793	-1.529212	-106.547764
1.018398	2.085994	-104.726891
1.019004	5.713957	-102.603715
1.019609	9.471924	-100.251438
1.020215	13.239611	-97.177157
1.020820	16.899164	-93.858863
1.021426	20.688114	-90.245858
1.022031	24.207943	-86.555581
1.022637	27.601413	-82.307602
1.023242	30.735482	-77.839740
1.023848	33.856794	-73.259362
1.024453	37.046146	-68.360412
1.025059	39.983994	-62.798563
1.025664	42.925487	-57.247830
1.026270	45.876700	-51.344635
1.026875	48.657207	-45.277139
1.027480	51.254251	-39.149995
1.028086	53.551191	-32.674998
1.028691	55.626396	-26.113242
1.029297	57.491407	-19.749406
1.029902	59.168702	-13.216660
1.030508	60.584167	-6.463761
1.031113	61.849580	0.349328
1.031719	63.084618	7.203357
1.032324	63.846418	14.134656
1.032930	64.375546	20.800524
1.033535	64.671397	27.648046
1.034141	64.782568	34.373833
1.034746	64.507980	40.601564
1.035352	63.968524	46.798929
1.035957	63.073683	53.039403
1.036563	62.009351	59.007126
1.037168	60.743331	64.504447
1.037773	59.336978	69.950526
1.038379	57.598326	75.256434
1.038984	55.625181	80.272509
1.039590	53.528106	84.890845
1.040195	51.212333	89.072399
1.040801	48.598280	93.150654
1.041406	45.758846	97.093076
1.042012	42.862915	100.157868
1.042617	39.809035	102.997356
1.043223	36.645806	105.795090
1.043828	33.282711	108.135979
1.044434	29.812696	110.006197
1.045039	26.265530	111.439903
1.045645	22.512423	112.546091
1.046250	18.647536	113.268910
1.046855	14.777182	113.402845
1.047461	10.901969	113.049570
1.048066	6.890676	112.366607
1.048672	2.861158	111.291056
1.049277	-1.188407	109.298833
1.049883	-4.983432	107.061513
1.050488	-9.045147	104.647149
1.051094	-12.995690	101.495597
1.051699	-16.812584	97.884760
1.052305	-20.535924	93.888384
1.052910	-24.114073	89.710084
1.053516	-27.638762	85.216194
1.054121	-30.992137	80.424881
1.054727	-34.179058	75.369221
1.055332	-37.236583	70.118623
1.055937	-40.117327	64.576024
1.056543	-42.720445	58.784532
1.057148	-45.223934	52.884049
1.057754	-47.611999	46.654962
1.058359	-49.692671	40.024882
1.058965	-51.684649	33.681110
1.059570	-53.383814	27.282299
1.060176	-54.973022	20.416341
1.060781	-56.283390	13.663713
1.061387	-57.490484	6.926539
1.061992	-58.605238	0.280462
1.062598	-59.466059	-6.520155
1.063203	-60.244868	-13.138576
1.063809	-60.653713	-19.657766
1.064414	-60.603291	-26.060915
1.065020	-60.630628	-32.558415
1.065625	-60.357255	-39.032598
1.066230	-59.962991	-44.884008
1.066836	-59.292923	-50.762260
1.067441	-58.359810	-56.876661
1.068047	-57.301553	-62.514425
1.068652	-56.157031	-67.836329
1.069258	-54.964517	-73.177211
1.069863	-53.505921	-78.291976
1.070469	-51.739931	-82.946100
1.071074	-49.669587	-87.012968
1.071680	-47.325261	-90.845314
1.072285	-44.736723	-94.444764
1.072891	-41.943459	-97.661928
1.073496	-39.240711	-100.332504
1.074102	-36.389735	-102.823868
1.074707	-33.415437	-105.297880
1.075312	-30.407726	-107.056936
1.075918	-27.263330	-108.312513
1.076523	-24.008976	-109.405959
1.077129	-20.515877	-109.975591
1.077734	-16.923756	-110.155889
1.078340	-13.280605	-109.825388
1.078945	-9.606472	-109.118838
1.079551	-5.990052	-108.210571
1.080156	-2.424053	-106.991323
1.080762	1.056289	-105.393044
1.081367	4.587660	-103.341174
1.081973	8.219876	-101.078910
1.082578	11.903121	-98.098438
1.083184	15.612489	-94.964509
1.083789	19.394148	-91.410338
1.084395	23.020289	-87.362448
1.085000	26.517033	-83.212887
1.085605	29.816341	-78.846426
1.086211	32.934008	-74.200435
1.086816	35.858492	-69.264071
1.087422	38.894147	-64.134123
1.088027	41.726898	-58.770466
1.088633	44.641054	-52.935865
1.089238	47.495676	-46.846408
1.089844	50.346652	-40.522428
1.090449	52.680043	-34.335907
1.091055	54.909551	-27.835696
1.091660	56.807367	-21.040502
1.092266	58.474335	-14.650096
1.092871	59.925034	-8.034114
1.093477	61.182550	-1.274166
1.094082	62.307024	5.639239
1.094688	63.265652	12.473205
1.095293	63.960019	19.370071
1.095898	64.447231	26.250670
1.096504	64.652564	32.882377
1.097109	64.560225	39.262209
1.097715	64.056611	45.321842
1.098320	63.212192	51.444648
1.098926	62.122953	57.471747
1.099531	60.848427	62.905083
1.100137	59.442683	68.379630
1.100742	57.919691	73.994620
1.101348	56.184077	79.203736
1.101953	54.318458	83.967937
1.102559	52.138764	88.490836
1.103164	49.633453	92.642296
1.103770	46.790374	96.455662
1.104375	43.918135	99.763924
1.104980	40.793178	102.667668
1.105586	37.500552	105.348006
1.106191	34.184234	107.811443
1.106797	30.864879	109.623098
1.107402	27.500569	111.325489
1.108008	24.031162	112.835652
1.108613	20.275017	113.562537
1.109219	16.373073	113.646586
1.109824	12.438932	113.531629
1.110430	8.304318	112.849209
1.111035	4.199471	111.735971
1.111641	0.160840	110.031140
1.112246	-3.694934	107.855094
1.112852	-7.557998	105.359935
1.113457	-11.450829	102.507434
1.114062	-15.195431	99.043004
1.114668	-18.892649	95.184631
1.115273	-22.609306	91.021242
1.115879	-26.306524	86.272766
1.116484	-29.723686	81.466541
1.117090	-33.109866	76.582233
1.117695	-36.221458	71.194445
1.118301	-39.183606	65.793373
1.118906	-41.812240	60.263246
1.119512	-44.166285	54.338361
1.120117	-46.429205	48.179224
1.120723	-48.639274	41.922212
1.121328	-50.775836	35.520419
1.121934	-52.677904	28.861871
1.122539	-54.375854	22.040106
1.123145	-55.900668	15.108264
1.123750	-57.235943	8.448903
1.124355	-58.206721	1.681092
1.124961	-59.032915	-5.250479
1.125566	-59.866399	-11.796239
1.126172	-60.394920	-18.022343
1.126777	-60.617871	-24.722373
1.127383	-60.715070	-31.205232
1.127988	-60.475717	-37.580726
1.128594	-60.224214	-43.704616
1.129199	-59.619756	-49.743645
1.129805	-58.769869	-55.651991
1.130410	-57.727407	-61.356723
1.131016	-56.698917	-66.590240
1.131621	-55.429252	-72.051231
1.132227	-53.980982	-77.328942
1.132832	-52.417289	-81.925316
1.133438	-50.571717	-85.981882
1.134043	-48.320339	-90.187837
1.134648	-45.774933	-93.867811
1.135254	-43.125645	-97.114798
1.135859	-40.450235	-99.863730
1.136465	-37.578603	-102.377055
1.137070	-34.557528	-104.624406
1.137676	-31.557108	-106.687122
1.138281	-28.447946	-108.035695
1.138887	-25.312054	-109.185806
1.139492	-21.923444	-109.972067
1.140098	-18.329500	-110.139351
1.140703	-14.795699	-110.003517
1.141309	-11.058994	-109.439307
1.141914	-7.440751	-108.342879
1.142520	-3.713158	-107.280342
1.143125	-0.165992	-105.652239
1.143730	3.449214	-103.743251
1.144336	7.066849	-101.466347
1.144941	10.758600	-98.872228
1.145547	14.387170	-95.805267
1.146152	18.054621	-92.236996
1.146758	21.801653	-88.416580
1.147363	25.398634	-84.328293
1.147969	28.885051	-80.079500
1.148574	32.129684	-75.376574
1.149180	35.210902	-70.259640
1.149785	38.230762	-65.407595
1.150391	41.166180	-60.065628
1.150996	43.964912	-54.187376
1.151602	46.753316	-48.195252
1.152207	49.601255	-42.033134
1.152813	52.150306	-35.757685
1.153418	54.542624	-29.126791
1.154023	56.543714	-22.505387
1.154629	58.422698	-15.937124
1.155234	59.952371	-9.416578
1.155840	61.251197	-2.654461
1.156445	62.336791	4.122840
1.157051	63.269297	10.882517
1.157656	64.062686	17.694793
1.158262	64.517093	24.849498
1.158867	64.883412	31.484730
1.159473	64.972714	38.024525
1.160078	64.639807	44.273946
1.160684	63.979459	50.472938
1.161289	63.102236	56.376946
1.161895	61.805840	61.992749
1.162500	60.385516	67.275340
1.163105	58.710651	72.657162
1.163711	56.888164	77.753762
1.164316	54.969693	82.740827
1.164922	52.895703	87.337473
1.165527	50.595725	91.789880
1.166133	47.996252	95.565289
1.166738	45.125836	99.400075
1.167344	42.127846	102.567352
1.167949	38.806668	105.079863
1.168555	35.410160	107.395538
1.169160	31.898836	109.519528
1.169766	28.355922	111.088797
1.170371	24.825766	112.336783
1.170977	21.154063	113.258336
1.171582	17.492080	113.780250
1.172187	13.622941	113.747173
1.172793	9.691230	113.159375
1.173398	5.546288	111.990557
1.174004	1.355177	110.597519
1.174609	-2.848692	108.483019
1.175215	-6.849658	105.709415
1.175820	-10.715152	103.035584
1.176426	-14.600086	99.862885
1.177031	-18.204964	96.227918
1.177637	-21.811665	92.054769
1.178242	-25.321774	87.662280
1.178848	-28.831883	82.919227
1.179453	-32.136051	77.761082
1.180059	-35.477884	72.261863
1.180664	-38.581578	66.689440
1.181270	-41.503632	61.188865
1.181875	-44.138340	55.150921
1.182480	-46.382428	49.049805
1.183086	-48.537822	43.186737
1.183691	-50.524333	36.821817
1.184297	-52.334669	30.248131
1.184902	-54.004067	23.645434
1.185508	-55.553788	17.080424
1.186113	-57.054909	10.177322
1.186719	-58.349482	3.285607
1.187324	-59.255866	-3.608277
1.187930	-60.034067	-10.358194
1.188535	-60.676798	-16.874944
1.189141	-61.038865	-23.415553
1.189746	-61.046763	-29.829004
1.190352	-60.833532	-36.075985
1.190957	-60.519456	-42.494588
1.191563	-60.055330	-48.562355
1.192168	-59.367645	-54.380146
1.192773	-58.458832	-60.122293
1.193379	-57.392677	-65.655132
1.193984	-56.163714	-70.935011
1.194590	-54.694789	-76.126504
1.195195	-52.991372	-80.909955
1.195801	-51.125753	-85.239543
1.196406	-49.037184	-89.239714
1.197012	-46.603557	-93.093479
1.197617	-44.011373	-96.513715
1.198223	-41.359655	-99.652253
1.198828	-38.509286	-102.201637
1.199434	-35.500969	-104.412658
1.200039	-32.432509	-106.655129
1.200645	-29.224933	-108.215993
1.201250	-26.025254	-109.104468
1.201855	-22.525472	-109.906455
1.202461	-18.945501	-110.278166
1.203066	-15.504039	-110.213639
1.203672	-11.889441	-109.535827
1.204277	-8.247505	-108.731943
1.204883	-4.513230	-107.616808
1.205488	-0.894987	-106.119929
1.206094	2.737836	-104.071583
1.206699	6.417437	-101.841584
1.207305	10.223396	-99.493916
1.207910	13.966176	-96.351311
1.208516	17.583812	-92.799309
1.209121	21.205700	-89.321594
1.209727	24.809971	-85.374292
1.210332	28.235638	-81.106791
1.210937	31.486347	-76.515568
1.211543	34.738270	-71.585168
1.212148	37.796402	-66.518392
1.212754	40.849675	-61.062282
1.213359	43.757148	-55.329082
1.213965	46.625135	-49.369493
1.214570	49.372230	-43.384418
1.215176	51.975348	-37.021125
1.215781	54.178127	-30.607945
1.216387	56.328053	-24.124543
1.216992	58.244701	-17.445390
1.217598	59.889192	-10.839711
1.218203	61.336246	-4.158660
1.218809	62.516002	2.687506
1.219414	63.482528	9.524996
1.220020	64.281384	16.319107
1.220625	64.831775	23.314391
1.221230	65.096036	30.050481
1.221836	65.173188	36.600579
1.222441	64.943555	42.922661
1.223047	64.393164	48.998291
1.223652	63.537810	55.018070
1.224258	62.302772	60.932381
1.224863	60.900672	66.283295
1.225469	59.351558	71.468010
1.226074	57.518137	76.837361
1.226680	55.547421	81.831475
1.227285	53.473432	86.319942
1.227891	51.225698	90.688572
1.228496	48.594635	94.738631
1.229102	45.809268	98.463611
1.229707	42.766323	101.493157
1.230312	39.609169	104.197624
1.230918	36.233317	106.749991
1.231523	32.669140	108.936881
1.232129	29.190014	110.423186
1.232734	25.661680	111.746816
1.233340	21.878198	113.103252
1.233945	18.175512	113.651737
1.234551	14.337356	113.593446
1.235156	10.380130	113.140668
1.235762	6.244301	112.258157
1.236367	2.073844	110.836380
1.236973	-2.000021	108.911396
1.237578	-6.079353	106.344388
1.238184	-10.059664	103.599252
1.238789	-13.982263	100.458817
1.239395	-17.686770	96.791315
