LabVIEW Measurement	
Writer_Version	2
Reader_Version	2
Separator	Tab
Decimal_Separator	.
Multi_Headings	No
X_Columns	One
Time_Pref	Absolute
Operator	AlunosGDS-JT
Date	2019/10/09
Time	15:19:08.4651639249999940857
***End_of_Header***	
	
Channels	2		
Samples	2048	2048	
Date	2019/10/09	2019/10/09	
Time	15:40:55.6328397062499847398	15:40:55.6328397062499847398	
Y_Unit_Label	g	Newtons	
X_Dimension	Time	Time	
X0	0.0000000000000000E+0	0.0000000000000000E+0	
Delta_X	0.000605	0.000605	
***End_of_Header***			
X_Value	Acceleration (Trigger)	Force (Trigger)	Comment
0.000000	-18.861667	-3.487627
0.000605	-23.251429	-13.682181
0.001211	-27.611424	-23.718670
0.001816	-31.698047	-33.700934
0.002422	-35.587841	-43.495851
0.003027	-39.360388	-52.975721
0.003633	-42.888722	-62.083608
0.004238	-46.044661	-70.930402
0.004844	-48.934517	-79.375661
0.005449	-51.596562	-87.241798
0.006055	-53.863736	-94.363697
0.006660	-55.750009	-101.191156
0.007266	-57.298515	-107.403704
0.007871	-58.481916	-112.472920
0.008477	-59.312970	-117.156325
0.009082	-59.752797	-121.163817
0.009687	-59.860931	-124.237285
0.010293	-59.497649	-126.506327
0.010898	-58.836086	-127.977720
0.011504	-57.766287	-128.677492
0.012109	-56.304653	-128.540845
0.012715	-54.428099	-127.474241
0.013320	-52.204665	-125.631679
0.013926	-49.673839	-123.064943
0.014531	-46.830760	-119.501282
0.015137	-43.703373	-115.444174
0.015742	-40.303828	-110.587520
0.016348	-36.671613	-104.691103
0.016953	-32.800651	-98.560705
0.017559	-28.734076	-91.780151
0.018164	-24.378333	-84.145284
0.018770	-20.035348	-76.106441
0.019375	-15.415952	-67.613193
0.019980	-10.701787	-58.644122
0.020586	-5.982762	-49.314726
0.021191	-1.257662	-39.710952
0.021797	3.484448	-29.935014
0.022402	8.281233	-19.948412
0.023008	12.896984	-9.641612
0.023613	17.508482	0.491397
0.024219	22.154001	10.615730
0.024824	26.548016	21.023118
0.025430	30.860626	30.989114
0.026035	34.789907	40.848287
0.026641	38.595259	50.374791
0.027246	42.336216	59.549375
0.027852	45.584495	68.452563
0.028457	48.603140	76.899991
0.029062	51.243923	84.772634
0.029668	53.687270	92.056124
0.030273	55.770372	98.868942
0.030879	57.508417	105.235489
0.031484	58.910517	110.929376
0.032090	59.994896	115.472068
0.032695	60.576877	119.559541
0.033301	60.618186	123.197220
0.033906	60.342991	125.684516
0.034512	59.772553	127.155096
0.035117	58.758035	128.033539
0.035723	57.341356	128.252066
0.036328	55.613638	127.530332
0.036934	53.572453	125.934764
0.037539	51.225091	123.552393
0.038145	48.332197	120.494650
0.038750	45.173828	116.559819
0.039355	41.804050	111.760101
0.039961	38.135992	106.450127
0.040566	34.198207	100.365821
0.041172	30.117052	93.601263
0.041777	25.906500	86.578866
0.042383	21.597535	78.748518
0.042988	17.070478	70.425807
0.043594	12.378790	61.834684
0.044199	7.716870	52.684230
0.044805	2.983265	43.168029
0.045410	-1.826277	33.430591
0.046016	-6.601192	23.534544
0.046621	-11.323255	13.389064
0.047227	-15.965735	3.100700
0.047832	-20.450875	-7.136421
0.048438	-24.809048	-17.025689
0.049043	-29.088854	-27.184455
0.049648	-33.075239	-37.214708
0.050254	-36.960173	-46.687800
0.050859	-40.667718	-56.048917
0.051465	-43.987681	-65.138910
0.052070	-47.012401	-73.849600
0.052676	-49.848190	-82.018854
0.053281	-52.374157	-89.680563
0.053887	-54.451184	-96.696182
0.054492	-56.240866	-103.258481
0.055098	-57.691565	-109.061088
0.055703	-58.739495	-114.149825
0.056309	-59.417460	-118.575120
0.056914	-59.782564	-122.121158
0.057520	-59.667140	-125.044423
0.058125	-59.194509	-127.218029
0.058730	-58.401120	-128.220918
0.059336	-57.119304	-128.518342
0.059941	-55.470561	-128.153680
0.060547	-53.482836	-126.813240
0.061152	-51.182250	-124.643430
0.061758	-48.501980	-121.737788
0.062363	-45.570814	-118.093332
0.062969	-42.295806	-113.656650
0.063574	-38.856774	-108.373245
0.064180	-35.112172	-102.598563
0.064785	-31.123964	-96.268618
0.065391	-26.946824	-88.853362
0.065996	-22.624494	-81.279226
0.066602	-18.125990	-73.210560
0.067207	-13.491406	-64.352107
0.067812	-8.810046	-55.307663
0.068418	-4.117750	-45.910215
0.069023	0.634687	-36.202058
0.069629	5.450911	-26.277543
0.070234	10.153534	-16.260847
0.070840	14.802697	-5.991733
0.071445	19.392326	4.234543
0.072051	23.879288	14.469495
0.072656	28.201011	24.448776
0.073262	32.437685	34.392812
0.073867	36.314721	44.349048
0.074473	40.047173	53.577314
0.075078	43.632004	62.538252
0.075684	46.872385	71.504883
0.076289	49.686305	79.877752
0.076895	52.226243	87.454327
0.077500	54.594261	94.556164
0.078105	56.535817	101.249145
0.078711	58.094650	107.370053
0.079316	59.360063	112.581067
0.079922	60.275559	117.092308
0.080527	60.634589	120.973456
0.081133	60.593279	124.015474
0.081738	60.243362	126.102590
0.082344	59.528947	127.663726
0.082949	58.289656	128.135482
0.083555	56.723533	127.895266
0.084160	54.853054	127.088128
0.084766	52.668500	125.127898
0.085371	50.160759	122.518324
0.085977	47.198003	119.189728
0.086582	43.910237	115.021730
0.087188	40.504617	109.998063
0.087793	36.679218	104.316377
0.088398	32.657598	98.125519
0.089004	28.455551	91.297789
0.089609	24.260187	83.670784
0.090215	19.855237	75.719243
0.090820	15.271076	67.567070
0.091426	10.552051	58.520728
0.092031	5.890738	49.204075
0.092637	1.067224	39.813405
0.093242	-3.796993	29.948267
0.093848	-8.636910	19.962749
0.094453	-13.251446	9.751385
0.095059	-17.862336	-0.459165
0.095664	-22.295231	-10.574823
0.096270	-26.546485	-20.584470
0.096875	-30.800776	-30.679793
0.097480	-34.748282	-40.544118
0.098086	-38.603448	-50.296739
0.098691	-42.126922	-59.363415
0.099297	-45.439595	-68.157069
0.099902	-48.381089	-77.001694
0.100508	-50.976309	-84.885996
0.101113	-53.332177	-92.160539
0.101719	-55.318080	-99.012670
0.102324	-56.952243	-105.362678
0.102930	-58.245601	-110.914767
0.103535	-59.240678	-115.704996
0.104141	-59.753405	-119.803314
0.104746	-59.882194	-123.218941
0.105352	-59.650738	-125.792998
0.105957	-59.047495	-127.433573
0.106563	-58.049380	-128.473606
0.107168	-56.633308	-128.499363
0.107773	-54.887366	-127.581336
0.108379	-52.765991	-126.200227
0.108984	-50.306849	-123.692325
0.109590	-47.558540	-120.384605
0.110195	-44.448163	-116.519454
0.110801	-41.197454	-111.801073
0.111406	-37.584071	-106.337100
0.112012	-33.655397	-100.248185
0.112617	-29.572420	-93.585299
0.113223	-25.305979	-86.183327
0.113828	-20.880374	-78.270015
0.114434	-16.329625	-69.880879
0.115039	-11.643405	-61.268878
0.115645	-6.965082	-51.787924
0.116250	-2.277647	-42.278772
0.116855	2.585355	-32.638668
0.117461	7.372420	-22.654777
0.118066	12.081117	-12.443413
0.118672	16.740608	-2.146916
0.119277	21.356359	8.032998
0.119883	25.811731	18.177665
0.120488	30.129809	28.251840
0.121094	34.201852	38.203196
0.121699	38.058233	47.760066
0.122305	41.773676	57.011649
0.122910	45.183548	66.053382
0.123516	48.286028	74.537953
0.124121	51.086582	82.857139
0.124727	53.506236	90.207326
0.125332	55.706585	97.030718
0.125938	57.510847	103.690350
0.126543	58.919021	109.505158
0.127148	60.145555	114.425256
0.127754	60.861792	118.651274
0.128359	61.062266	122.275125
0.128965	60.814407	125.052254
0.129570	60.312616	126.882887
0.130176	59.514975	127.970639
0.130781	58.108015	128.429924
0.131387	56.413103	127.890657
0.131992	54.475192	126.432549
0.132598	52.113857	124.515969
0.133203	49.344285	121.534413
0.133809	46.222973	117.856608
0.134414	42.930955	113.455172
0.135020	39.428135	108.207014
0.135625	35.506144	102.319544
0.136230	31.371530	95.887928
0.136836	27.166446	88.808866
0.137441	22.764534	81.079104
0.138047	18.284862	72.948621
0.138652	13.677008	64.450493
0.139258	8.954945	55.547576
0.139863	4.150263	45.963052
0.140469	-0.637409	36.186843
0.141074	-5.525318	26.578189
0.141680	-10.285045	16.436504
0.142285	-14.924488	6.044570
0.142891	-19.435142	-4.095488
0.143496	-23.949441	-14.113540
0.144102	-28.286959	-24.225402
0.144707	-32.355964	-34.272735
0.145313	-36.308330	-44.044878
0.145918	-40.049288	-53.466727
0.146523	-43.562434	-62.630737
0.147129	-46.745711	-71.465060
0.147734	-49.584537	-79.696401
0.148340	-52.196160	-87.615949
0.148945	-54.310245	-94.855788
0.149551	-56.273063	-101.289845
0.150156	-57.759604	-107.418074
0.150762	-58.935108	-112.807216
0.151367	-59.775274	-117.262877
0.151973	-60.142202	-121.119082
0.152578	-60.146454	-124.254908
0.153184	-59.846351	-126.529372
0.153789	-59.103992	-127.876861
0.154395	-57.962508	-128.573109
0.155000	-56.419469	-128.370579
0.155605	-54.530766	-127.327292
0.156211	-52.369297	-125.276235
0.156816	-49.778328	-122.737424
0.157422	-46.855060	-119.342131
0.158027	-43.690616	-114.852851
0.158633	-40.298968	-109.986165
0.159238	-36.640023	-104.377954
0.159844	-32.619010	-98.055058
0.160449	-28.491078	-91.054080
0.161055	-24.223422	-83.561824
0.161660	-19.684823	-75.426732
0.162266	-15.075755	-66.896069
0.162871	-10.350654	-57.883888
0.163477	-5.587890	-48.578351
0.164082	-0.754048	-38.933638
0.164687	3.981987	-28.973335
0.165293	8.759332	-19.131242
0.165898	13.519667	-8.812242
0.166504	18.061911	1.582403
0.167109	22.655792	11.641937
0.167715	27.134856	21.775759
0.168320	31.357558	31.843156
0.168926	35.342728	41.719411
0.169531	39.220979	51.210939
0.170137	42.908477	60.372238
0.170742	46.239983	69.222828
0.171348	49.146849	77.723938
0.171953	51.864176	85.560793
0.172559	54.243736	92.799006
0.173164	56.325623	99.738439
0.173770	58.057593	105.814069
0.174375	59.510722	111.421738
0.174980	60.488790	116.278663
0.175586	61.027638	120.211325
0.176191	61.167970	123.571100
0.176797	60.845997	125.996310
0.177402	60.240324	127.597300
0.178008	59.211834	128.366209
0.178613	57.773892	128.500145
0.179219	56.000613	127.759161
0.179824	53.964288	126.092559
0.180430	51.560428	123.642948
0.181035	48.621365	120.563516
0.181641	45.551083	116.709480
0.182246	42.174623	111.693676
0.182852	38.402076	106.352522
0.183457	34.424802	100.501925
0.184062	30.335143	93.685854
0.184668	26.074777	86.392603
0.185273	21.692304	78.490949
0.185879	17.125760	70.279129
0.186484	12.513654	61.583622
0.187090	7.812246	52.392500
0.187695	3.041584	42.854338
0.188301	-1.825670	33.122864
0.188906	-6.703859	23.090713
0.189512	-11.359704	13.020605
0.190117	-16.107282	2.753118
0.190723	-20.564476	-7.611973
0.191328	-25.023494	-17.453795
0.191934	-29.290542	-27.448801
0.192539	-33.327350	-37.563374
0.193145	-37.180694	-47.221102
0.193750	-40.918006	-56.488681
0.194355	-44.301756	-65.547224
0.194961	-47.434003	-74.300480
0.195566	-50.145256	-82.424456
0.196172	-52.731971	-90.020011
0.196777	-54.870963	-97.090668
0.197383	-56.590175	-103.654322
0.197988	-58.053632	-109.321097
0.198594	-59.150769	-114.382992
0.199199	-59.914998	-118.896674
0.199805	-60.068695	-122.203038
0.200410	-60.002478	-125.064486
0.201016	-59.563258	-127.109850
0.201621	-58.746785	-128.238270
0.202227	-57.498989	-128.541930
0.202832	-55.871508	-128.072071
0.203437	-53.889858	-126.696385
0.204043	-51.573477	-124.513290
0.204648	-48.870730	-121.528209
0.205254	-45.953536	-117.865045
0.205859	-42.610489	-113.402064
0.206465	-39.240104	-108.046269
0.207070	-35.424424	-102.288668
0.207676	-31.466591	-95.908836
0.208281	-27.273049	-88.529368
0.208887	-22.940999	-80.819941
0.209492	-18.420017	-72.557692
0.210098	-13.761134	-63.853238
0.210703	-9.018417	-54.686517
0.211309	-4.248969	-45.302082
0.211914	0.530198	-35.537803
0.212520	5.296000	-25.684052
0.213125	9.985258	-15.583035
0.213730	14.652038	-5.372213
0.214336	19.324286	4.809327
0.214941	23.805173	15.135377
0.215547	28.220451	25.018680
0.216152	32.382402	35.070623
0.216758	36.348133	45.048007
0.217363	40.129793	54.305012
0.217969	43.659949	63.389854
0.218574	46.939817	72.172934
0.219180	49.816309	80.504592
0.219785	52.389660	88.021249
0.220391	54.668375	95.166736
0.220996	56.576519	101.904182
0.221602	58.215542	107.922876
0.222207	59.466982	113.054179
0.222812	60.377011	117.514449
0.223418	60.782818	121.513536
0.224023	60.746975	124.353837
0.224629	60.389768	126.486774
0.225234	59.697223	128.005885
0.225840	58.453680	128.509092
0.226445	56.894846	128.346417
0.227051	55.144044	127.294454
0.227656	52.842244	125.355913
0.228262	50.342400	122.744984
0.228867	47.385719	119.358367
0.229473	44.178750	115.123944
0.230078	40.675324	110.093499
0.230684	36.858429	104.302549
0.231289	32.873259	98.062347
0.231895	28.674857	91.334933
0.232500	24.387154	83.620897
0.233105	20.059963	75.594255
0.233711	15.477625	67.439370
0.234316	10.840612	58.563566
0.234922	6.134344	49.233628
0.235527	1.348494	39.597590
0.236133	-3.517545	29.792912
0.236738	-8.264515	19.754526
0.237344	-13.042467	9.486226
0.237949	-17.578029	-0.730832
0.238555	-21.993306	-10.810701
0.239160	-26.309562	-20.988446
0.239766	-30.489131	-30.994026
0.240371	-34.479161	-40.666937
0.240977	-38.330683	-50.495473
0.241582	-41.850512	-59.698254
0.242187	-45.180195	-68.382373
0.242793	-48.119865	-76.975937
0.243398	-50.808641	-85.006376
0.244004	-53.124414	-92.310471
0.244609	-55.195366	-99.211675
0.245215	-56.784574	-105.455132
0.245820	-58.122279	-110.990140
0.246426	-59.107637	-115.719094
0.247031	-59.586951	-119.787318
0.247637	-59.714525	-123.308413
0.248242	-59.534706	-125.835836
0.248848	-58.983100	-127.319700
0.249453	-57.958863	-128.422364
0.250059	-56.615690	-128.427786
0.250664	-54.856383	-127.460143
0.251270	-52.716784	-125.848579
0.251875	-50.286194	-123.382430
0.252480	-47.509332	-120.177466
0.253086	-44.429938	-116.171601
0.253691	-41.162219	-111.459727
0.254297	-37.541546	-105.990332
0.254902	-33.655397	-99.889216
0.255508	-29.682377	-93.099172
0.256113	-25.462105	-85.809446
0.256719	-21.029211	-77.901014
0.257324	-16.493042	-69.299046
0.257930	-11.829906	-60.704939
0.258535	-7.135788	-51.428142
0.259141	-2.412511	-41.745199
0.259746	2.324132	-32.049785
0.260352	7.110589	-22.077824
0.260957	11.815034	-11.898995
0.261562	16.444150	-1.611445
0.262168	21.070229	8.519395
0.262773	25.528031	18.693887
0.263379	29.795079	28.764808
0.263984	33.884131	38.791536
0.264590	37.730793	48.180580
0.265195	41.402496	57.401255
0.265801	44.850033	66.667750
0.266406	47.852276	75.008626
0.267012	50.688065	83.063465
0.267617	53.203704	90.602354
0.268223	55.339050	97.560224
0.268828	57.101395	104.030883
0.269434	58.621349	109.815054
0.270039	59.727598	114.717528
0.270645	60.439583	118.931888
0.271250	60.688048	122.503683
0.271855	60.472388	125.269425
0.272461	59.917137	127.113343
0.273066	59.075148	128.017001
0.273672	57.750808	128.362142
0.274277	56.097205	128.151479
0.274883	54.128312	126.509819
0.275488	51.814361	124.307475
0.276094	49.076987	121.536582
0.276699	45.988479	117.885618
0.277305	42.741416	113.345096
0.277910	39.106770	108.026716
0.278516	35.246136	102.202690
0.279121	31.212366	95.766193
0.279727	26.962328	88.597659
0.280332	22.662474	80.953303
0.280938	18.124483	72.838545
0.281543	13.570089	64.134091
0.282148	8.907561	55.263980
0.282754	4.116851	45.935940
0.283359	-0.699981	36.029319
0.283965	-5.494943	26.188583
0.284570	-10.244950	16.204421
0.285176	-14.864346	5.959166
0.285781	-19.383505	-4.225899
0.286387	-23.847990	-14.353214
0.286992	-28.166068	-24.407597
0.287598	-32.276382	-34.480146
0.288203	-36.121222	-44.236563
0.288809	-39.873114	-53.636180
0.289414	-43.316398	-62.735391
0.290020	-46.491778	-71.711512
0.290625	-49.213965	-79.794277
0.291230	-51.769091	-87.487707
0.291836	-54.033834	-94.945259
0.292441	-55.875153	-101.454689
0.293047	-57.371415	-107.383370
0.293652	-58.548133	-112.687379
0.294258	-59.324513	-117.223022
0.294863	-59.708450	-121.023917
0.295469	-59.780742	-124.123413
0.296074	-59.357317	-126.334705
0.296680	-58.633790	-127.748891
0.297285	-57.446744	-128.255351
0.297891	-55.909780	-128.073156
0.298496	-53.967617	-127.104699
0.299102	-51.751474	-124.890967
0.299707	-49.238872	-122.235302
0.300312	-46.260322	-118.862241
0.300918	-43.162702	-114.502016
0.301523	-39.703015	-109.448254
0.302129	-36.001545	-103.817811
0.302734	-32.098386	-97.526636
0.303340	-27.951014	-90.513729
0.303945	-23.682751	-82.934171
0.304551	-19.176957	-74.838120
0.305156	-14.549056	-66.337010
0.305762	-9.940595	-57.253524
0.306367	-5.228252	-47.891322
0.306973	-0.377401	-38.482486
0.307578	4.416954	-28.302844
0.308184	9.139624	-18.336576
0.308789	13.753553	-8.239627
0.309395	18.442203	2.065546
0.310000	22.978979	12.249798
0.310605	27.431922	22.392297
0.311211	31.551956	32.373205
0.311816	35.523762	42.222347
0.312422	39.349769	51.657481
0.313027	43.002639	60.805224
0.313633	46.280685	69.611078
0.314238	49.217318	78.171836
0.314844	51.844129	85.882618
0.315449	54.251633	93.040849
0.316055	56.202302	100.048605
0.316660	57.872307	106.277963
0.317266	59.160805	111.544828
0.317871	60.230604	116.323670
0.318477	60.736041	120.371017
0.319082	60.749405	123.612582
0.319688	60.505192	126.056228
0.320293	59.790778	127.543346
0.320898	58.712473	128.342079
0.321504	57.267849	128.417452
0.322109	55.489102	127.545244
0.322715	53.359830	125.971637
0.323320	50.870921	123.445841
0.323926	48.091021	120.188822
0.324531	44.955130	116.445947
0.325137	41.426796	111.568416
0.325742	37.761168	105.931466
0.326348	33.752912	99.916296
0.326953	29.607363	93.285403
0.327559	25.360969	85.895361
0.328164	20.988824	78.012143
0.328770	16.413168	69.760739
0.329375	11.731200	61.067130
0.329980	6.998810	51.868416
0.330586	2.313197	42.312360
0.331191	-2.516392	32.695843
0.331797	-7.401871	22.633869
0.332402	-12.017622	12.329509
0.333008	-16.751835	2.397674
0.333613	-21.250946	-7.788204
0.334219	-25.647391	-18.006618
0.334824	-29.835466	-28.033888
0.335430	-33.840076	-37.925054
0.336035	-37.726832	-47.618842
0.336641	-41.375450	-56.963149
0.337246	-44.798080	-65.997562
0.337852	-47.780883	-74.576214
0.338457	-50.537698	-82.652472
0.339062	-52.923940	-90.362441
0.339668	-55.030734	-97.160347
0.340273	-56.831959	-103.694720
0.340879	-58.025687	-109.531489
0.341484	-59.079085	-114.305179
0.342090	-59.828127	-118.636936
0.342695	-60.019488	-122.214154
0.343301	-59.861539	-124.986945
0.343906	-59.410777	-126.912200
0.344512	-58.531731	-128.049568
0.345117	-57.156361	-128.337502
0.345723	-55.435326	-127.745908
0.346328	-53.456714	-126.374831
0.346934	-51.088089	-124.145645
0.347539	-48.410248	-121.183338
0.348145	-45.446278	-117.288363
0.348750	-42.091080	-112.931120
0.349355	-38.566999	-107.740983
0.349961	-34.819359	-101.524368
0.350566	-30.784981	-95.057234
0.351172	-26.522185	-87.921507
0.351777	-22.127562	-80.120169
0.352383	-17.574384	-71.756519
0.352988	-12.924613	-63.084600
0.353594	-8.208018	-53.978610
0.354199	-3.464085	-44.458614
0.354805	1.255547	-34.721718
0.355410	6.043220	-24.892639
0.356016	10.857621	-14.848288
0.356621	15.507392	-4.405654
0.357227	20.089731	5.688042
0.357832	24.707912	15.739713
0.358438	29.029027	26.083115
0.359043	33.154529	36.109572
0.359648	37.040071	45.716329
0.360254	40.840563	55.037862
0.360859	44.416281	64.140327
0.361465	47.518761	72.836918
0.362070	50.364270	81.028946
0.362676	52.981968	88.651342
0.363281	55.258254	95.762126
0.363887	57.103825	102.350453
0.364492	58.701538	108.298925
0.365098	59.963914	113.572298
0.365703	60.747583	117.890770
0.366309	61.106005	121.575081
0.366914	61.065303	124.875209
0.367520	60.672861	126.842760
0.368125	59.877649	128.051163
0.368730	58.686351	128.652246
0.369336	56.998728	128.462458
0.369941	55.173812	127.248092
0.370547	52.877479	125.253970
0.371152	50.309595	122.606439
0.371758	47.275762	119.165869
0.372363	44.032344	114.731355
0.372969	40.527095	109.665393
0.373574	36.615431	104.105442
0.374180	32.627223	97.712054
0.374785	28.521768	90.674202
0.375391	24.202475	83.315069
0.375996	19.640184	75.346989
0.376602	15.054808	66.840998
0.377207	10.340643	57.897142
0.377812	5.631945	48.562323
0.378418	0.795673	38.955838
0.379023	-4.033916	29.114288
0.379629	-8.868973	19.081595
0.380234	-13.499304	8.855590
0.380840	-18.101082	-1.421115
0.381445	-22.654261	-11.577983
0.382051	-26.978414	-21.487315
0.382656	-31.236350	-31.667500
0.383262	-35.179604	-41.607468
0.383867	-39.029910	-50.945269
0.384473	-42.592871	-60.205799
0.385078	-45.871525	-69.115765
0.385684	-48.802690	-77.619858
0.386289	-51.524270	-85.504974
0.386895	-53.798734	-92.845671
0.387500	-55.802254	-99.729252
0.388105	-57.435202	-105.953188
0.388711	-58.707905	-111.307355
0.389316	-59.631905	-116.113309
0.389922	-60.114864	-120.280494
0.390527	-60.237578	-123.358028
0.391133	-60.038927	-125.897381
0.391738	-59.408347	-127.720694
0.392344	-58.406587	-128.349160
0.392949	-57.028180	-128.387931
0.393555	-55.214198	-127.565610
0.394160	-53.098291	-125.816857
0.394766	-50.614850	-123.341490
0.395371	-47.784528	-120.030517
0.395977	-44.769528	-116.096228
0.396582	-41.346898	-111.226018
0.397187	-37.738375	-105.693179
0.397793	-33.897788	-99.668249
0.398398	-29.769249	-92.921586
0.399004	-25.530752	-85.270993
0.399609	-21.078418	-77.447965
0.400215	-16.471779	-69.076181
0.400820	-11.742427	-59.999744
0.401426	-7.044664	-50.765513
0.402031	-2.209000	-41.238739
0.402637	2.615122	-31.371703
0.403242	7.390645	-21.398115
0.403848	12.068360	-11.236095
0.404453	16.720561	-1.022291
0.405059	21.322339	9.169010
0.405664	25.840891	19.398268
0.406270	30.211214	29.405475
0.406875	34.257741	39.245670
0.407480	38.164545	49.043840
0.408086	41.818023	58.127597
0.408691	45.329347	67.079588
0.409297	48.357105	75.752320
0.409902	51.132144	83.749952
0.410508	53.625913	91.073298
0.411113	55.755185	98.063702
0.411719	57.554587	104.588315
0.412324	59.072110	110.257258
0.412930	60.245792	115.097102
0.413535	60.963244	119.342371
0.414141	61.122408	122.978693
0.414746	61.030676	125.501507
0.415352	60.524025	127.230197
0.415957	59.504647	128.490655
0.416563	58.222832	128.657668
0.417168	56.582594	128.093187
0.417773	54.605803	126.729430
0.418379	52.262086	124.505124
0.418984	49.562376	121.629035
0.419590	46.397931	117.836274
0.420195	43.077361	113.187572
0.420801	39.514400	107.887629
0.421406	35.537734	101.983350
0.422012	31.418915	95.453857
0.422617	27.263645	88.408686
0.423223	22.970474	80.538753
0.423828	18.462858	72.412337
0.424434	13.810657	64.023472
0.425039	9.152382	54.757519
0.425645	4.378074	45.281987
0.426250	-0.535349	35.626157
0.426855	-5.389846	25.724146
0.427461	-10.121021	15.619063
0.428066	-14.796914	5.367844
0.428672	-19.374393	-4.772215
0.429277	-23.777520	-14.906037
0.429883	-28.070084	-25.021966
0.430488	-32.202268	-35.005314
0.431094	-36.206878	-44.657077
0.431699	-39.858534	-54.271425
0.432305	-43.454300	-63.473935
0.432910	-46.590192	-71.930581
0.433516	-49.467291	-80.350354
0.434121	-51.999939	-88.236011
0.434727	-54.221550	-95.343270
0.435332	-56.100534	-101.893097
0.435937	-57.625955	-107.843739
0.436543	-58.795384	-113.105724
0.437148	-59.565688	-117.574399
0.437754	-60.046825	-121.382886
0.438359	-60.038927	-124.408094
0.438965	-59.708450	-126.677677
0.439570	-58.936931	-127.908041
0.440176	-57.896291	-128.626792
0.440781	-56.297970	-128.330995
0.441387	-54.474876	-126.947175
0.441992	-52.132373	-125.107866
0.442598	-49.594865	-122.372491
0.443203	-46.718981	-118.774668
0.443809	-43.566079	-114.481139
0.444414	-40.125225	-109.484585
0.445020	-36.455344	-103.725086
0.445625	-32.520596	-97.341458
0.446230	-28.433366	-90.373828
0.446836	-24.046033	-82.806742
0.447441	-19.551781	-74.686562
0.448047	-14.970658	-65.922189
0.448652	-10.277755	-57.105219
0.449258	-5.598217	-47.792632
0.449863	-0.816012	-37.804675
0.450469	3.955865	-28.033346
0.451074	8.759939	-18.055420
0.451680	13.401813	-7.828602
0.452285	18.110510	2.468166
0.452891	22.640604	12.650520
0.453496	27.040087	22.786512
0.454102	31.336295	32.779621
0.454707	35.298988	42.608699
0.455313	39.128033	52.063083
0.455918	42.714079	61.227907
0.456523	46.045584	70.174475
0.457129	49.045397	78.323937
0.457734	51.677067	86.194683
0.458340	54.012888	93.669858
0.458945	56.083840	100.312952
0.459551	57.848614	106.492422
0.460156	59.190572	111.971579
0.460762	60.134013	116.627872
0.461367	60.736648	120.557551
0.461973	60.790715	123.757634
0.462578	60.536782	126.250082
0.463184	59.830265	127.746147
0.463789	58.840655	128.392779
0.464395	57.458602	128.457036
0.465000	55.603918	127.698429
0.465605	53.557266	125.865085
0.466211	51.139434	123.517147
0.466816	48.200978	120.335229
0.467422	45.063871	116.249111
0.468027	41.581707	111.428516
0.468633	37.973791	105.895406
0.469238	33.990443	99.728136
0.469844	29.895316	93.056845
0.470449	25.648922	85.737567
0.471055	21.293179	77.828321
0.471660	16.766123	69.482836
0.472266	12.078080	60.677524
0.472871	7.421627	51.614915
0.473477	2.627880	42.138298
0.474082	-2.173765	32.025081
0.474687	-6.991204	22.196545
0.475293	-11.736352	12.245731
0.475898	-16.329018	1.953572
0.476504	-20.746725	-8.293309
0.477109	-25.171722	-18.366400
0.477715	-29.429051	-28.338903
0.478320	-33.457354	-38.334181
0.478926	-37.257846	-48.023088
0.479531	-40.960531	-57.347333
0.480137	-44.311476	-66.347313
0.480742	-47.353814	-75.038481
0.481348	-50.014644	-83.141852
0.481953	-52.493226	-90.554668
0.482559	-54.717267	-97.772546
0.483164	-56.240866	-103.989432
0.483770	-57.689135	-109.588697
0.484375	-58.783842	-114.656828
0.484980	-59.439329	-118.947103
0.485586	-59.660458	-122.425089
0.486191	-59.507976	-125.165345
0.486797	-59.082122	-127.089787
0.487402	-58.121064	-128.145546
0.488008	-56.898783	-128.400945
0.488613	-55.230600	-127.788746
0.489219	-53.177266	-126.468098
0.489824	-50.849343	-124.124769
0.490430	-48.196410	-121.024459
0.491035	-45.215429	-117.467576
0.491641	-41.902149	-112.780646
0.492246	-38.481342	-107.364120
0.492852	-34.680242	-101.472312
0.493457	-30.776476	-94.976168
0.494063	-26.474193	-87.680748
0.494668	-22.186490	-79.881037
0.495273	-17.679480	-71.622041
0.495879	-13.054009	-62.889119
0.496484	-8.366574	-53.751679
0.497090	-3.629324	-44.245510
0.497695	1.128581	-34.627909
0.498301	5.952703	-24.623412
0.498906	10.512564	-14.479016
0.499512	15.216402	-4.462048
0.500117	19.889865	5.994412
0.500723	24.266870	16.218248
0.501328	28.728317	26.288356
0.501934	32.783350	36.214226
0.502539	36.651273	45.889035
0.503145	40.411671	55.293804
0.503750	43.899910	64.309508
0.504355	47.047344	73.025350
0.504961	49.911686	81.224698
0.505566	52.422464	88.809408
0.506172	54.679918	95.726880
0.506777	56.563154	102.452124
0.507383	58.094650	108.487086
0.507988	59.301744	113.315814
0.508594	60.133405	117.894023
0.509199	60.494865	121.716880
0.509805	60.418928	124.616828
0.510410	59.996111	126.688490
0.511016	59.176600	127.882252
0.511621	58.019928	128.429381
0.512227	56.469600	128.136024
0.512832	54.458789	126.971545
0.513437	52.290030	124.973085
0.514043	49.677800	122.231745
0.514648	46.751494	118.632567
0.515254	43.469803	114.523403
0.515859	39.817540	109.286632
0.516465	36.204157	103.456912
0.517070	32.154592	97.367183
0.517676	28.010257	90.412567
0.518281	23.777836	82.777700
0.518887	19.392933	74.793353
0.519492	14.777790	66.361379
0.520098	10.073345	57.475272
0.520703	5.365862	48.095989
0.521309	0.545993	38.458324
0.521914	-4.222240	28.664221
0.522520	-9.040287	18.619598
0.523125	-13.590428	8.327710
0.523730	-18.128419	-1.770053
0.524336	-22.659729	-11.867544
0.524941	-26.883037	-22.134760
0.525547	-31.040129	-32.058190
0.526152	-35.002822	-41.796713
0.526758	-38.743172	-51.346804
0.527363	-42.289124	-60.603268
0.527969	-45.554412	-69.421052
0.528574	-48.419361	-77.862786
0.529180	-51.024302	-85.754137
0.529785	-53.346149	-93.168851
0.530391	-55.306537	-99.880269
0.530996	-56.851399	-106.038592
0.531602	-58.110737	-111.648430
0.532207	-59.110067	-116.160214
0.532813	-59.645878	-120.167163
0.533418	-59.614896	-123.583604
0.534023	-59.369467	-125.876775
0.534629	-58.719447	-127.471530
0.535234	-57.703107	-128.258605
0.535840	-56.211706	-128.223901
0.536445	-54.441464	-127.322954
0.537051	-52.251442	-125.564982
0.537656	-49.813563	-123.080126
0.538262	-47.003896	-119.770508
0.538867	-43.885014	-115.667580
0.539473	-40.583884	-110.855933
0.540078	-36.974753	-105.503934
0.540684	-33.135989	-99.076384
0.541289	-29.025067	-92.342735
0.541895	-24.694231	-85.065481
0.542500	-20.387088	-76.965363
0.543105	-15.771337	-68.455035
0.543711	-11.091799	-59.623152
0.544316	-6.488805	-50.424710
0.544922	-1.684731	-40.768066
0.545527	3.005742	-30.931125
0.546133	7.820144	-20.968653
0.546738	12.473560	-10.860046
0.547344	17.188332	-0.474891
0.547949	21.710529	9.676555
0.548555	26.098469	19.729311
0.549160	30.435379	29.937151
0.549766	34.380455	39.733694
0.550371	38.250202	49.207328
0.550977	41.907325	58.531031
0.551582	45.290467	67.446691
0.552187	48.396592	75.997959
0.552793	51.047095	83.993151
0.553398	53.517779	91.417897
0.554004	55.602703	98.270028
0.554609	57.410003	104.644437
0.555215	58.852804	110.384415
0.555820	59.915314	115.285805
0.556426	60.560474	119.302786
0.557031	60.758518	122.686421
0.557637	60.484537	125.598841
0.558242	59.928679	127.220437
0.558848	59.042343	128.055229
0.559453	57.614729	128.391695
0.560059	55.925284	127.883879
0.560664	53.839752	126.356363
0.561270	51.543418	124.072410
0.561875	48.785996	121.065909
0.562480	45.742444	117.365873
0.563086	42.359301	112.691143
0.563691	38.787228	107.402859
0.564297	34.857947	101.461435
0.564902	30.715435	94.751916
0.565508	26.513996	87.668787
0.566113	22.109653	80.076486
0.566719	17.677366	71.669456
0.567324	13.001473	63.088906
0.567930	8.315253	54.141795
0.568535	3.545805	44.685242
0.569141	-1.274671	34.951599
0.569746	-6.081783	25.047148
0.570352	-10.851231	15.016895
0.570957	-15.434784	4.734497
0.571562	-19.990393	-5.501269
0.572168	-24.426933	-15.636718
0.572773	-28.659962	-25.557165
0.573379	-32.817054	-35.682583
0.573984	-36.666753	-45.419208
0.574590	-40.349998	-54.594876
0.575195	-43.841275	-63.870319
0.575801	-46.945577	-72.533562
0.576406	-49.755243	-80.789846
0.577012	-52.258732	-88.523403
0.577617	-54.452399	-95.635271
0.578223	-56.274885	-102.223598
0.578828	-57.771754	-108.202708
0.579434	-58.917491	-113.436768
0.580039	-59.674430	-117.848506
0.580645	-59.969065	-121.491878
0.581250	-59.916821	-124.499192
0.581855	-59.495219	-126.793448
0.582461	-58.805712	-127.964435
0.583066	-57.621703	-128.267281
0.583672	-55.989970	-128.167236
0.584277	-54.021077	-126.923587
0.584883	-51.815261	-124.865752
0.585488	-49.189665	-122.032772
0.586094	-46.257284	-118.491071
0.586699	-43.028446	-114.146029
0.587305	-39.538991	-109.030451
0.587910	-35.872148	-103.297794
0.588516	-31.919175	-96.932331
0.589121	-27.789421	-89.894480
0.589727	-23.390546	-82.146825
0.590332	-18.963726	-74.160580
0.590938	-14.276290	-65.437961
0.591543	-9.612547	-56.286423
0.592148	-4.807258	-47.098825
0.592754	-0.076690	-37.297672
0.593359	4.735282	-27.385087
0.593965	9.518701	-17.386014
0.594570	14.159360	-7.190375
0.595176	18.798803	3.100971
0.595781	23.273615	13.273836
0.596387	27.720482	23.343673
0.596992	31.958371	33.355489
0.597598	35.901016	43.230930
0.598203	39.775015	52.696702
0.598809	43.386576	61.589316
0.599414	46.650042	70.643520
0.600020	49.502841	79.127550
0.600625	52.126614	86.694094
0.601230	54.531689	93.925799
0.601836	56.526097	100.690628
0.602441	58.117735	106.840004
0.603047	59.525910	112.231045
0.603652	60.486967	116.882729
0.604258	60.948057	120.744356
0.604863	61.009414	123.992428
0.605469	60.655244	126.280719
0.606074	59.992466	127.747503
0.606680	58.917199	128.505567
0.607285	57.397853	128.301139
0.607891	55.573544	127.597842
0.608496	53.456422	125.888131
0.609102	50.917698	123.211318
0.609707	48.056394	120.038890
0.610313	44.812368	115.977986
0.610918	41.363616	111.085543
0.611523	37.614761	105.397621
0.612129	33.625338	99.281865
0.612734	29.496191	92.525983
0.613340	25.206665	85.100153
0.613945	20.856998	77.083000
0.614551	16.280126	68.914017
0.615156	11.654048	60.105451
0.615762	6.942313	50.730235
0.616367	2.147958	41.433374
0.616973	-2.689529	31.648218
0.617578	-7.567717	21.501381
0.618184	-12.335342	11.320925
0.618789	-16.837492	1.127998
0.619395	-21.288611	-9.017483
0.620000	-25.748843	-19.151306
0.620605	-29.949675	-29.139534
0.621211	-33.967650	-39.060524
0.621816	-37.795479	-48.746178
0.622422	-41.410685	-58.088045
0.623027	-44.877054	-66.921012
0.623633	-47.873222	-75.542231
0.624238	-50.553493	-83.870906
0.624844	-53.022962	-91.108576
0.625449	-55.148589	-98.000020
0.626055	-56.808874	-104.445464
0.626660	-58.144149	-110.140435
0.627266	-59.243108	-115.038843
0.627871	-59.918643	-119.277604
0.628477	-60.109397	-122.806290
0.629082	-59.996403	-125.512926
0.629687	-59.449657	-127.303433
0.630293	-58.556638	-128.347805
0.630898	-57.195241	-128.655531
0.631504	-55.544676	-127.885537
0.632109	-53.508351	-126.464574
0.632715	-51.048601	-124.219933
0.633320	-48.445483	-120.898658
0.633926	-45.410435	-117.154970
0.634531	-42.112342	-112.583539
0.635137	-38.601018	-107.278444
0.635742	-34.751927	-101.262462
0.636348	-30.740634	-94.676033
0.636953	-26.559242	-87.402845
0.637559	-22.124525	-79.509325
0.638164	-17.619946	-71.170347
0.638770	-12.945268	-62.495446
0.639375	-8.204373	-53.332249
0.639980	-3.513292	-43.666659
0.640586	1.209985	-34.087557
0.641191	6.014060	-24.243567
0.641797	10.806592	-13.901250
0.642402	15.413838	-3.617766
0.643008	20.050244	6.543168
0.643613	24.558468	16.724980
0.644219	28.917856	26.815965
0.644824	33.005085	36.767321
0.645430	36.855999	46.432369
0.646035	40.692334	55.735737
0.646641	44.195153	64.784248
0.647246	47.317072	73.439357
0.647852	50.152254	81.532967
0.648457	52.748082	89.262999
0.649062	54.981236	96.156612
0.649668	56.883304	102.741685
0.650273	58.419053	108.907600
0.650879	59.648624	113.955668
0.651484	60.520987	118.224795
0.652090	60.851465	121.901786
0.652695	60.735433	124.919945
0.653301	60.340561	126.831644
0.653906	59.567827	128.020254
0.654512	58.318816	128.492553
0.655117	56.701055	128.289481
0.655723	54.842727	127.062100
0.656328	52.670323	124.908287
0.656934	50.025287	122.337213
0.657539	46.939817	118.659408
0.658145	43.720699	114.251736
0.658750	40.202085	109.237287
0.659355	36.384583	103.429528
0.659961	32.362355	97.121816
0.660566	28.220451	90.126531
0.661172	23.963122	82.527723
0.661777	19.472515	74.384497
0.662383	14.904149	66.031692
0.662988	10.221574	57.098680
0.663594	5.478249	47.684693
0.664199	0.689969	37.901977
0.664805	-4.160883	28.150440
0.665410	-9.022062	18.247616
0.666016	-13.643280	7.753740
0.666621	-18.103512	-2.429699
0.667227	-22.637251	-12.308935
0.667832	-26.932852	-22.454145
0.668438	-31.040129	-32.525880
0.669043	-34.972448	-42.445785
0.669648	-38.816679	-51.878480
0.670254	-42.359593	-61.016733
0.670859	-45.508242	-69.958420
0.671465	-48.472820	-78.454651
0.672070	-51.106921	-86.236197
0.672676	-53.409329	-93.602380
0.673281	-55.302285	-100.420078
0.673887	-56.931588	-106.405694
0.674492	-58.132607	-111.937449
0.675098	-59.083337	-116.653660
0.675703	-59.561436	-120.417411
0.676309	-59.634943	-123.724047
0.676914	-59.476994	-126.167963
0.677520	-58.757719	-127.607364
0.678125	-57.808204	-128.406910
0.678730	-56.257875	-128.369224
0.679336	-54.582403	-127.425168
0.679941	-52.445234	-125.631679
0.680547	-49.915015	-122.971676
0.681152	-47.052496	-119.832054
0.681758	-44.010766	-115.746206
0.682363	-40.725430	-110.645540
0.682969	-37.071345	-105.322281
0.683574	-33.176691	-99.137658
0.684180	-29.108293	-92.177620
0.684785	-24.782318	-84.647949
0.685391	-20.474567	-76.715116
0.685996	-15.877649	-68.271484
0.686602	-11.149511	-59.319764
0.687207	-6.499133	-50.048931
0.687813	-1.767958	-40.417502
0.688418	2.944385	-30.638040
0.689023	7.767292	-20.608329
0.689629	12.402483	-10.531714
0.690234	17.009729	-0.204037
0.690840	21.637022	10.149667
0.691445	26.016457	20.004774
0.692051	30.322385	30.133987
0.692656	34.319098	40.191895
0.693262	38.124450	49.631367
0.693867	41.768208	58.792395
0.694473	45.099714	67.771498
0.695078	48.129901	76.369129
0.695684	50.859379	84.220354
0.696289	53.357400	91.543428
0.696895	55.386435	98.447615
0.697500	57.122657	104.979547
0.698105	58.512607	110.393362
0.698711	59.641334	115.191996
0.699316	60.253689	119.541918
0.699922	60.380048	122.810867
0.700527	60.225137	125.424779
0.701133	59.692363	127.144251
0.701738	58.759858	128.152292
0.702344	57.281821	128.386544
0.702949	55.548029	127.754552
0.703555	53.617408	126.237881
0.704160	51.262148	123.928985
0.704766	48.434864	120.975354
0.705371	45.379769	117.127012
0.705977	42.006954	112.516268
0.706582	38.392356	107.005119
0.707187	34.579106	101.048512
0.707793	30.396500	94.737546
0.708398	26.283148	87.346691
0.709004	21.993014	79.469980
0.709609	17.468388	71.425444
0.710215	12.878759	62.862788
0.710820	8.157304	53.706912
0.711426	3.505103	44.240327
0.712031	-1.394956	34.550335
0.712637	-6.120056	24.688993
0.713242	-10.831791	14.541343
0.713848	-15.408662	4.301782
0.714453	-19.850669	-5.794083
0.715059	-24.310294	-16.077295
0.715664	-28.546968	-26.066066
0.716270	-32.591065	-35.823297
0.716875	-36.530066	-45.766248
0.717480	-40.141019	-55.137668
0.718086	-43.505330	-64.162591
0.718691	-46.664914	-72.888192
0.719297	-49.424158	-81.194907
0.719902	-51.875403	-88.821369
0.720508	-53.995562	-95.871692
0.721113	-55.818049	-102.410403
0.721719	-57.265710	-108.372974
0.722324	-58.313033	-113.524341
0.722930	-59.091842	-117.823563
0.723535	-59.423535	-121.722876
0.724141	-59.232781	-124.600592
0.724746	-58.938753	-126.495211
0.725352	-58.113774	-127.957928
0.725957	-56.906073	-128.396878
0.726562	-55.290743	-127.940033
0.727168	-53.347972	-126.689336
0.727773	-51.038274	-124.654275
0.728379	-48.476465	-121.809094
0.728984	-45.560487	-118.202866
0.729590	-42.310993	-113.804141
0.730195	-38.937571	-108.772341
0.730801	-35.188108	-102.991694
0.731406	-31.263080	-96.490941
0.732012	-27.113278	-89.616577
0.732617	-22.823145	-81.838556
0.733223	-18.341650	-73.506899
0.733828	-13.715572	-65.045915
0.734434	-9.034212	-55.972189
0.735039	-4.368039	-46.538681
0.735645	0.306032	-36.920538
0.736250	5.133799	-27.038048
0.736855	9.857684	-16.976887
0.737461	14.494090	-6.720245
0.738066	19.072783	3.501422
0.738672	23.582222	13.607048
0.739277	27.923993	23.731923
0.739883	32.055570	33.873066
0.740488	35.993356	43.374355
0.741094	39.734313	52.885133
0.741699	43.288162	62.169522
0.742305	46.560740	70.837646
0.742910	49.434194	79.175810
0.743516	51.939506	86.916687
0.744121	54.257101	94.076544
0.744727	56.173142	100.745395
0.745332	57.737443	106.896398
0.745938	59.025941	112.213693
0.746543	59.954194	116.790275
0.747148	60.438368	120.679286
0.747754	60.412853	123.847647
0.748359	60.045926	126.201551
0.748965	59.372821	127.371724
0.749570	58.187597	128.232816
0.750176	56.620258	128.275654
0.750781	54.800202	127.180582
0.751387	52.649060	125.393328
0.751992	50.106692	122.804360
0.752598	47.196181	119.566591
0.753203	44.011082	115.446582
0.753809	40.559900	110.537601
0.754414	36.900347	104.968974
0.755020	32.825267	98.737989
0.755625	28.663922	91.890738
0.756230	24.427249	84.582847
0.756836	20.033841	76.613683
0.757441	15.486737	68.066481
0.758047	10.862481	59.544223
0.758652	6.111866	50.320024
0.759258	1.343634	40.590177
0.759863	-3.411841	30.915639
0.760469	-8.249935	20.865052
0.761074	-12.903351	10.722011
0.761680	-17.451669	0.509020
0.762285	-21.927696	-9.612602
0.762891	-26.250634	-19.645566
0.763496	-30.441139	-29.705371
0.764102	-34.397757	-39.631783
0.764707	-38.189744	-49.134970
0.765312	-41.797052	-58.435356
0.765918	-45.055658	-67.598823
0.766523	-48.115006	-75.910689
0.767129	-50.757611	-83.886360
0.767734	-53.107404	-91.495200
0.768340	-55.103026	-98.414840
0.768945	-56.772424	-104.672666
0.769551	-58.092512	-110.331307
0.770156	-59.023802	-115.164915
0.770762	-59.580876	-119.374395
0.771367	-59.769199	-122.766706
0.771973	-59.654990	-125.463582
0.772578	-59.032915	-127.295299
0.773184	-58.062745	-128.116264
0.773789	-56.703777	-128.436191
0.774395	-54.957227	-127.838362
0.775000	-52.872910	-125.997426
0.775605	-50.458116	-123.797521
0.776211	-47.639337	-120.673624
0.776816	-44.598214	-116.758857
0.777422	-41.348720	-112.054303
0.778027	-37.776039	-106.757343
0.778633	-33.929378	-100.750307
0.779238	-29.954535	-94.003373
0.779844	-25.685056	-86.693041
0.780449	-21.328098	-78.922612
0.781055	-16.658888	-70.645450
0.781660	-12.057109	-61.695629
0.782266	-7.360562	-52.620819
0.782871	-2.617237	-43.194360
0.783477	2.168613	-33.193117
0.784082	6.888246	-23.364852
0.784687	11.556241	-13.276036
0.785293	16.244892	-2.988486
0.785898	20.890410	7.173804
0.786504	25.370082	17.396556
0.787109	29.748909	27.517635
0.787715	33.818522	37.453266
0.788320	37.721681	47.104486
0.788926	41.423758	56.273919
0.789531	44.823303	65.287726
0.790137	47.941578	74.126929
0.790742	50.738487	81.980865
0.791348	53.331278	89.462547
0.791953	55.449615	96.751188
0.792559	57.366263	103.290984
0.793164	58.833365	109.045873
0.793770	59.991251	114.070896
0.794375	60.759733	118.469350
0.794980	60.983291	122.055785
0.795586	60.886092	124.957360
0.796191	60.438368	126.874482
0.796797	59.552639	128.035166
0.797402	58.256244	128.416096
0.798008	56.670073	128.009952
0.798613	54.661693	126.885598
0.799219	52.381155	124.640416
0.799824	49.633453	121.836988
0.800430	46.633032	118.487786
0.801035	43.280264	113.940485
0.801641	39.696041	108.666028
0.802246	35.859099	102.891617
0.802852	31.731167	96.565197
0.803457	27.535803	89.476103
0.804063	23.271185	81.790535
0.804668	18.765998	73.747896
0.805273	14.144172	65.341409
0.805879	9.465242	56.219152
0.806484	4.715234	46.797302
0.807090	-0.141692	37.307943
0.807695	-5.024741	27.320528
0.808301	-9.731616	17.142783
0.808906	-14.416622	7.073217
0.809512	-19.008680	-3.088802
0.810117	-23.493212	-13.212593
0.810723	-27.756616	-23.243389
0.811328	-31.899735	-33.286384
0.811934	-35.886728	-43.120343
0.812539	-39.718810	-52.610516
0.813145	-43.205227	-61.763410
0.813750	-46.423131	-70.570620
0.814355	-49.322099	-79.097487
0.814961	-51.866898	-86.982602
0.815566	-54.223373	-93.996866
0.816172	-56.147311	-101.015196
0.816777	-57.630815	-107.057207
0.817383	-58.915061	-112.225112
0.817988	-59.757657	-116.836941
0.818594	-60.223606	-120.848228
0.819199	-60.219961	-124.025266
0.819805	-59.927148	-126.332807
0.820410	-59.312970	-127.848393
0.821016	-58.189711	-128.552233
0.821621	-56.610830	-128.419382
0.822227	-54.839373	-127.349795
0.822832	-52.640240	-125.649844
0.823438	-50.089366	-123.035119
0.824043	-47.208015	-119.496672
0.824648	-44.086703	-115.506261
0.825254	-40.645241	-110.620868
0.825859	-36.957135	-104.847813
0.826465	-33.077062	-98.649634
0.827070	-28.895062	-91.731078
0.827676	-24.665679	-84.201949
0.828281	-20.181147	-76.141687
0.828887	-15.528339	-67.625665
0.829492	-10.834828	-58.737931
0.830098	-6.097578	-49.413957
0.830703	-1.324486	-39.700107
0.831309	3.422484	-30.061629
0.831914	8.307355	-20.079094
0.832520	12.945584	-9.560274
0.833125	17.577129	0.463200
0.833730	22.217180	10.649892
0.834336	26.663440	20.903823
0.834941	30.900113	30.909403
0.835547	34.967296	40.876213
0.836152	38.863772	50.353101
0.836758	42.554307	59.526058
0.837363	45.931375	68.481573
0.837969	48.881981	76.977532
0.838574	51.632720	84.881355
0.839180	54.080927	92.210394
0.839785	56.144589	98.967089
0.840391	57.898429	105.343939
0.840996	59.338193	111.085543
0.841602	60.412853	115.677038
0.842207	61.042218	119.749058
0.842812	61.098715	123.320852
0.843418	60.825950	125.795677
0.844023	60.296821	127.413749
0.844629	59.364316	128.312527
0.845234	57.885064	128.521021
0.845840	56.221134	127.863544
0.846445	54.181771	126.247371
0.847051	51.703190	123.870964
0.847656	48.991937	120.993790
0.848262	45.736369	116.879746
0.848867	42.484445	112.214777
0.849473	38.797555	107.023827
0.850078	34.743738	100.839204
0.850684	30.639498	94.227290
0.851289	26.488481	87.082887
0.851895	22.059839	79.182046
0.852500	17.529137	70.988391
0.853105	12.928574	62.348193
0.853711	8.232633	53.169272
0.854316	3.400614	43.669338
0.854922	-1.477575	33.912108
0.855527	-6.318707	23.981900
0.856133	-11.094836	13.935922
0.856738	-15.686288	3.555376
0.857344	-20.166567	-6.644330
0.857949	-24.655959	-16.466088
0.858555	-28.885950	-26.742251
0.859160	-32.932478	-36.770877
0.859766	-36.915218	-46.409626
0.860371	-40.621548	-55.784571
0.860977	-44.080628	-64.907912
0.861582	-47.129040	-73.594201
0.862187	-49.874920	-81.787856
0.862793	-52.439159	-89.438991
0.863398	-54.582403	-96.513173
0.864004	-56.347177	-103.038599
0.864609	-57.833111	-108.771256
0.865215	-58.894406	-114.086653
0.865820	-59.759480	-118.460434
0.866426	-60.039535	-121.885009
0.867031	-60.017665	-124.985318
0.867637	-59.522556	-127.051287
0.868242	-58.745570	-128.179165
0.868848	-57.464969	-128.618387
0.869453	-55.936510	-128.193806
0.870059	-53.949392	-126.887528
0.870664	-51.682827	-124.761640
0.871270	-49.041436	-121.890160
0.871875	-46.155225	-118.318094
0.872480	-42.978631	-113.867042
0.873086	-39.478242	-108.595296
0.873691	-35.769482	-102.979493
0.874297	-31.711412	-96.510733
0.874902	-27.554927	-89.132891
0.875508	-23.210727	-81.586410
0.876113	-18.680025	-73.434508
0.876719	-14.125632	-64.740086
0.877324	-9.491048	-55.659040
0.877930	-4.661459	-46.229328
0.878535	0.038126	-36.574583
0.879141	4.875006	-26.613467
0.879746	9.626836	-16.558270
0.880352	14.271746	-6.329283
0.880957	18.976191	3.912718
0.881563	23.413339	14.170173
0.882168	27.898478	24.094417
0.882773	31.948651	34.226612
0.883379	35.928354	44.168208
0.883984	39.680246	53.326253
0.884590	43.279657	62.457999
0.885195	46.503028	71.351427
0.885801	49.438447	79.671968
0.886406	52.063435	87.322290
0.887012	54.451499	94.513326
0.887617	56.341418	101.242638
0.888223	57.946421	107.337789
0.888828	59.234919	112.513285
0.889434	60.164387	117.131621
0.890039	60.585989	121.105494
0.890645	60.601177	123.984836
0.891250	60.288316	126.324641
0.891855	59.593342	127.827756
0.892461	58.399613	128.398473
0.893066	56.927651	128.313611
0.893672	55.094837	127.315873
0.894277	52.947341	125.447553
0.894883	50.370952	122.806800
0.895488	47.427029	119.510197
0.896094	44.272912	115.355484
0.896699	40.877620	110.394718
0.897305	37.168252	104.677786
0.897910	33.124155	98.590768
0.898516	29.019915	91.812926
0.899121	24.873758	84.176160
0.899727	20.436003	76.376991
0.900332	15.812355	68.106337
0.900937	11.185669	59.171969
0.901543	6.546833	49.942076
0.902148	1.735469	40.350774
0.902754	-3.061923	30.598695
0.903359	-7.822258	20.631343
0.903965	-12.475674	10.417538
0.904570	-17.032498	0.182044
0.905176	-21.563199	-9.926021
0.905781	-25.939597	-20.099428
0.906387	-30.069959	-30.088741
0.906992	-34.118916	-40.002682
0.907598	-37.907258	-49.828236
0.908203	-41.439237	-58.787275
0.908809	-44.827847	-67.693175
0.909414	-47.728031	-76.411998
0.910020	-50.465406	-84.390109
0.910625	-52.764776	-91.763342
0.911230	-54.847271	-98.723109
0.911836	-56.468069	-105.067966
0.912441	-57.847691	-110.635780
0.913047	-58.835479	-115.468033
0.913652	-59.339700	-119.617594
0.914258	-59.534706	-123.155769
0.914863	-59.322690	-125.585045
0.915469	-58.805712	-127.374739
0.916074	-57.768717	-128.439716
0.916680	-56.430404	-128.330453
0.917285	-54.768296	-127.669722
0.917891	-52.702812	-126.162541
0.918496	-50.289232	-123.748719
0.919102	-47.588914	-120.618586
0.919707	-44.535642	-116.666403
0.920312	-41.260026	-111.983811
0.920918	-37.743842	-106.599548
0.921523	-33.894143	-100.534763
0.922129	-29.910187	-93.885705
0.922734	-25.733048	-86.620651
0.923340	-21.305621	-78.597804
0.923945	-16.856931	-70.397371
0.924551	-12.155524	-61.728706
0.925156	-7.506968	-52.301434
0.925762	-2.817103	-42.796078
0.926367	1.926222	-33.058911
0.926973	6.718147	-23.145241
0.927578	11.380675	-12.955025
0.928184	15.976986	-2.726851
0.928789	20.588485	7.461196
0.929395	25.048109	17.608846
0.930000	29.374692	27.715285
0.930605	33.414537	37.630039
0.931211	37.277601	47.154102
0.931816	41.002764	56.603877
0.932422	44.335484	65.458534
0.933027	47.476236	74.096563
0.933633	50.240948	82.452079
0.934238	52.735325	89.797115
0.934844	54.892541	96.791857
0.935449	56.740543	103.316469
0.936055	58.264141	109.213157
0.936660	59.407448	114.130814
0.937266	60.171070	118.454980
0.937871	60.416498	122.133869
0.938477	60.281634	124.932688
0.939082	59.822975	126.713434
0.939688	58.926311	127.780038
0.940293	57.626271	128.366209
0.940898	55.935004	127.812573
0.941504	54.053590	126.398658
0.942109	51.752397	124.522205
0.942715	49.041752	121.615750
0.943320	46.001844	118.004913
0.943926	42.748706	113.528918
0.944531	39.224624	108.376467
0.945137	35.341513	102.528310
0.945742	31.312603	96.143327
0.946348	27.098407	89.061554
0.946953	22.855658	81.422077
0.947559	18.444025	73.252823
0.948164	13.887202	64.727854
0.948770	9.168176	55.934742
0.949375	4.483171	46.343711
0.949980	-0.360391	36.739124
0.950586	-5.120118	27.091699
0.951191	-9.864051	16.943778
0.951797	-14.448819	6.694185
0.952402	-18.959473	-3.470546
0.953008	-23.433678	-13.576985
0.953613	-27.652734	-23.601815
0.954219	-31.818331	-33.672195
0.954824	-35.732424	-43.437559
0.955430	-39.453334	-52.869982
0.956035	-42.934284	-62.077372
0.956641	-46.064708	-70.887022
0.957246	-49.009846	-79.128395
0.957852	-51.500578	-87.154767
0.958457	-53.806023	-94.356919
0.959063	-55.686830	-100.885056
0.959668	-57.138136	-107.012200
0.960273	-58.413269	-112.421677
0.960879	-59.259511	-116.941595
0.961484	-59.610036	-120.835486
0.962090	-59.594241	-124.001678
0.962695	-59.248576	-126.292138
0.963301	-58.530516	-127.694937
0.963906	-57.414547	-128.319879
0.964512	-55.893986	-128.402843
0.965117	-54.038087	-127.158110
0.965723	-51.861430	-125.241260
0.966328	-49.329389	-122.809815
0.966934	-46.367848	-119.200604
0.967539	-43.281164	-114.959403
0.968145	-39.881619	-110.059640
0.968750	-36.166784	-104.423503
0.969355	-32.219278	-98.143987
0.969961	-28.159993	-91.230311
0.970566	-23.948227	-83.692235
0.971172	-19.531734	-75.654476
0.971777	-14.873459	-67.142521
0.972383	-10.235838	-58.193242
0.972988	-5.465783	-48.943014
0.973594	-0.720636	-39.147555
0.974199	4.023904	-29.341522
0.974805	8.860176	-19.586732
0.975410	13.452842	-9.215675
0.976016	18.055228	1.126100
0.976621	22.596865	11.219525
0.977227	26.997562	21.298851
0.977832	31.242133	31.384414
0.978437	35.250996	41.258770
0.979043	39.089153	50.762770
0.979648	42.731089	59.885840
0.980254	46.058949	68.819123
0.980859	48.953665	77.282276
0.981465	51.626645	84.977876
0.982070	54.067562	92.448713
0.982676	56.041315	99.226827
0.983281	57.671226	105.386505
0.983887	59.080008	111.095304
0.984492	60.174715	115.839713
0.985098	60.753050	119.891127
0.985703	60.913429	123.273948
0.986309	60.491827	125.771818
0.986914	59.952371	127.350848
0.987520	58.832150	128.122468
0.988125	57.393600	128.318762
0.988730	55.658593	127.659930
0.989336	53.519601	125.939102
0.989941	51.135181	123.477562
0.990547	48.281168	120.608522
0.991152	45.116723	116.582594
0.991758	41.759703	111.676324
0.992363	37.969539	106.428437
0.992969	34.040258	100.406489
0.993574	29.824846	93.672027
0.994180	25.524993	86.355188
0.994785	21.253085	78.567678
0.995391	16.691401	70.326576
0.995996	12.070790	61.673636
0.996602	7.406439	52.533485
0.997207	2.688629	43.114346
0.997812	-2.209607	33.213149
0.998418	-7.031299	23.245254
0.999023	-11.800746	13.267871
0.999629	-16.406170	2.846656
1.000234	-20.968461	-7.347627
1.000840	-25.326026	-17.262923
1.001445	-29.516530	-27.340352
1.002051	-33.533898	-37.302552
1.002656	-37.420047	-46.970312
1.003262	-41.145817	-56.255243
1.003867	-44.460920	-65.289113
1.004473	-47.548212	-74.009835
1.005078	-50.338439	-82.198610
1.005684	-52.839498	-89.712013
1.006289	-54.903160	-96.863195
1.006895	-56.622980	-103.396754
1.007500	-58.021435	-108.950741
1.008105	-59.160489	-114.138438
1.008711	-59.857894	-118.590303
1.009316	-60.137342	-122.099197
1.009922	-59.964206	-124.879851
1.010527	-59.575408	-126.980252
1.011133	-58.766224	-128.192993
1.011738	-57.388425	-128.453001
1.012344	-55.751224	-128.033571
1.012949	-53.699104	-126.666019
1.013555	-51.392444	-124.507054
1.014160	-48.685444	-121.518177
1.014766	-45.631564	-118.023924
1.015371	-42.405763	-113.510513
1.015977	-38.995283	-108.114050
1.016582	-35.158949	-102.439413
1.017187	-31.148871	-95.974177
1.017793	-26.920702	-88.654899
1.018398	-22.570427	-80.929204
1.019004	-17.977761	-72.699761
1.019609	-13.341355	-64.023504
1.020215	-8.603497	-54.857325
1.020820	-3.859565	-45.459335
1.021426	0.866750	-35.777748
1.022031	5.699985	-25.880075
1.022637	10.434805	-15.716429
1.023242	15.063920	-5.587757
1.023848	19.770188	4.634723
1.024453	24.289955	15.046719
1.025059	28.661492	24.947646
1.025664	32.841669	34.937772
1.026270	36.743613	44.763055
1.026875	40.513122	54.150743
1.027480	44.038419	63.204947
1.028086	47.207115	71.956577
1.028691	50.102439	80.255157
1.029297	52.769344	87.961601
1.029902	55.023153	95.041477
1.030508	56.953774	101.733102
1.031113	58.557562	107.895763
1.031719	59.810825	112.822638
1.032324	60.709311	117.412235
1.032930	61.064696	121.424607
1.033535	61.016704	124.365766
1.034141	60.629121	126.440140
1.034746	59.925642	127.827485
1.035352	58.693033	128.477641
1.035957	57.144527	128.280534
1.036563	55.356668	127.306383
1.037168	53.119262	125.362420
1.037773	50.526471	122.753660
1.038379	47.578903	119.405000
1.038984	44.309362	115.137771
1.039590	40.799253	110.249938
1.040195	37.028528	104.351894
1.040801	32.958916	98.162392
1.041406	28.817011	91.498421
1.042012	24.533560	83.843490
1.042617	20.087301	75.819017
1.043223	15.452718	67.505796
1.043828	10.762245	58.664153
1.044434	6.066304	49.318490
1.045039	1.169283	39.704142
1.045645	-3.626894	29.903260
1.046250	-8.485036	19.868669
1.046855	-13.152424	9.633175
1.047461	-17.734762	-0.615333
1.048066	-22.195602	-10.593259
1.048672	-26.597514	-20.877827
1.049277	-30.757644	-30.947935
1.049883	-34.740384	-40.623828
1.050488	-38.650225	-50.341474
1.051094	-42.187064	-59.622068
1.051699	-45.443240	-68.501668
1.052305	-48.380481	-76.979191
1.052910	-51.142156	-84.999055
1.053516	-53.479798	-92.360629
1.054121	-55.524021	-99.230383
1.054727	-57.132669	-105.498783
1.055332	-58.460047	-111.080424
1.055937	-59.416852	-115.815614
1.056543	-59.967850	-119.804941
1.057148	-60.123369	-123.446686
1.057754	-59.945373	-125.866202
1.058359	-59.408347	-127.401851
1.058965	-58.412054	-128.470624
1.059570	-56.958318	-128.496923
1.060176	-55.242143	-127.765700
1.060781	-53.130488	-126.061411
1.061387	-50.712049	-123.698019
1.061992	-47.983786	-120.477330
1.062598	-44.943879	-116.536263
1.063203	-41.594149	-111.759591
1.063809	-37.961933	-106.417082
1.064414	-34.131066	-100.251167
1.065020	-30.070566	-93.516704
1.065625	-25.795013	-86.324583
1.066230	-21.362118	-78.241547
1.066836	-16.821697	-69.722813
1.067441	-12.141551	-61.053063
1.068047	-7.433461	-51.852723
1.068652	-2.644574	-42.234308
1.069258	2.098751	-32.455930
1.069863	6.936238	-22.499694
1.070469	11.646151	-12.342012
1.071074	16.280126	-2.058258
1.071680	20.914710	8.084240
1.072285	25.417466	18.251682
1.072891	29.730077	28.425360
1.073496	33.758987	38.395966
1.074102	37.730185	47.734038
1.074707	41.491798	57.204147
1.075312	44.877370	66.313390
1.075918	47.987140	74.792811
1.076523	50.756104	82.881269
1.077129	53.285716	90.359427
1.077734	55.439895	97.354169
1.078340	57.276961	103.889356
1.078945	58.846122	109.653192
1.079551	60.011906	114.618568
1.080156	60.709311	118.899624
1.080762	60.976609	122.388997
1.081367	60.790108	125.192425
1.081973	60.299859	127.097889
1.082578	59.392261	127.905569
1.083184	58.151147	128.532409
1.083789	56.412495	128.149310
1.084395	54.578466	126.692828
1.085000	52.266338	124.567754
1.085605	49.544151	121.672144
1.086211	46.527328	118.040159
1.086816	43.241385	113.497739
1.087422	39.587299	108.244700
1.088027	35.747320	102.402237
1.088633	31.715980	95.921547
1.089238	27.518793	88.731595
1.089844	23.240202	81.230663
1.090449	18.762353	73.042702
1.091055	14.163005	64.354786
1.091660	9.432437	55.596108
1.092266	4.684860	46.127354
1.092871	-0.144122	36.389915
1.093477	-4.899597	26.590660
1.094082	-9.766244	16.457380
1.094688	-14.456109	6.238153
1.095293	-18.920594	-3.991647
1.095898	-23.399051	-14.090224
1.096504	-27.653949	-24.158434
1.097109	-31.774591	-34.176215
1.097715	-35.679572	-44.051114
1.098320	-39.497682	-53.410333
1.098926	-42.990781	-62.662188
1.099531	-46.191675	-71.582999
1.100137	-49.080316	-79.654919
1.100742	-51.603852	-87.454630
1.101348	-53.925700	-94.769571
1.101953	-55.730569	-101.429203
1.102559	-57.220148	-107.344599
1.103164	-58.494066	-112.679517
1.103770	-59.320868	-117.296497
1.104375	-59.760087	-121.098476
1.104980	-59.778312	-124.216680
1.105586	-59.497649	-126.581699
1.106191	-58.770477	-128.022184
1.106797	-57.632638	-128.440529
1.107402	-56.169789	-128.362445
1.108008	-54.247065	-127.369858
1.108613	-52.049754	-125.261865
1.109219	-49.558415	-122.541401
1.109824	-46.736598	-119.191657
1.110430	-43.579444	-114.959674
1.111035	-40.227891	-109.967187
1.111641	-36.576843	-104.306919
1.112246	-32.654852	-98.053431
1.112852	-28.512948	-91.018834
1.113457	-24.211272	-83.451476
1.114062	-19.699403	-75.388503
1.114668	-15.124962	-66.933484
1.115273	-10.515286	-57.793062
1.115879	-5.809018	-48.656435
1.116484	-1.020131	-38.982711
1.117090	3.715904	-28.968726
1.117695	8.513296	-19.013032
1.118301	13.129047	-8.823087
1.118906	17.828025	1.432742
1.119512	22.376344	11.654137
1.120117	26.784331	21.756781
1.120723	31.043482	31.780798
1.121328	35.006176	41.626415
1.121934	38.823070	51.122281
1.122539	42.420658	60.150729
1.123145	45.778286	69.064220
1.123750	48.739827	77.687065
1.124355	51.457154	85.264725
1.124961	53.862836	92.649887
1.125566	55.896731	99.667946
1.126172	57.603186	105.893508
1.126777	58.945751	111.340129
1.127383	59.960269	116.016486
1.127988	60.530707	120.064918
1.128594	60.612111	123.367757
1.129199	60.353318	125.849089
1.129805	59.783488	127.441675
1.130410	58.749530	128.254235
1.131016	57.295186	128.240136
1.131621	55.554104	127.522470
1.132227	53.483152	126.037520
1.132832	51.019150	123.295096
1.133438	48.189436	120.352039
1.134043	45.044431	116.517524
1.134648	41.666756	111.667106
1.135254	37.970754	106.155686
1.135859	34.119232	100.150277
1.136465	30.010132	93.500405
1.137070	25.756449	86.134222
1.137676	21.436548	78.300078
1.138281	16.924679	70.065754
1.138887	12.267011	61.420134
1.139492	7.551631	52.082333
1.140098	2.825316	42.692477
1.140703	-2.048013	32.956936
1.141309	-6.762786	22.813895
1.141914	-11.494568	12.786896
1.142520	-16.109712	2.655785
1.143125	-20.566299	-7.512200
1.143730	-25.002839	-17.606709
1.144336	-29.252877	-27.697965
1.144941	-33.197346	-37.578286
1.145547	-37.093214	-47.290239
1.146152	-40.681690	-56.594420
1.146758	-44.114040	-65.626121
1.147363	-47.182500	-74.328406
1.147969	-49.896182	-82.626715
1.148574	-52.423364	-90.007268
1.149180	-54.491278	-97.062200
1.149785	-56.263343	-103.736202
1.150391	-57.628385	-109.244640
1.150996	-58.706082	-114.310602
1.151602	-59.376150	-118.615247
1.152207	-59.641625	-122.225270
1.152813	-59.533491	-125.018937
1.153418	-59.034737	-126.964256
1.154023	-58.253498	-128.150155
1.154629	-56.940093	-128.468726
1.155234	-55.291350	-127.935966
1.155840	-53.292082	-126.586037
1.156445	-50.905232	-124.493498
1.157051	-48.317302	-121.359840
1.157656	-45.280431	-117.721078
1.158262	-42.069210	-113.381458
1.158867	-38.601626	-107.981199
1.159473	-34.806601	-102.019441
1.160078	-30.871853	-95.578335
1.160684	-26.675881	-88.367778
1.161289	-22.306166	-80.586232
1.161895	-17.775465	-72.332116
1.162500	-13.094104	-63.648539
1.163105	-8.398164	-54.534687
1.163711	-3.712551	-45.103619
1.164316	1.019232	-35.439656
1.164922	5.741902	-25.647992
1.165527	10.532611	-15.305675
1.166133	15.016536	-5.191645
1.166738	19.706401	4.902052
1.167344	24.217663	15.308083
1.167949	28.581911	25.426180
1.168555	32.684935	35.297554
1.169160	36.639731	45.063732
1.169766	40.353959	54.411293
1.170371	43.905377	63.474174
1.170977	47.045522	72.193268
1.171582	49.809019	80.396684
1.172187	52.481999	88.067069
1.172793	54.683563	95.019516
1.173398	56.704093	101.683757
1.174004	58.130492	107.897390
1.174609	59.450580	112.925395
1.175215	60.346028	117.297007
1.175820	60.649169	121.271964
1.176426	60.551969	124.314524
1.177031	60.154667	126.400556
1.177637	59.377681	127.686771
1.178242	58.162082	128.292734
1.178848	56.614791	128.097254
1.179453	54.695105	126.976696
1.180059	52.557936	125.060659
1.180664	49.976688	122.429937
1.181270	46.896078	118.930261
1.181875	43.630789	114.595522
1.182480	40.185682	109.828068
1.183086	36.315936	103.892067
1.183691	32.344738	97.640748
1.184297	28.138439	90.903845
1.184902	23.920597	83.357906
1.185508	19.508965	75.320690
1.186113	14.916906	66.958666
1.186719	10.258023	58.145763
1.187324	5.574233	48.761329
1.187930	0.765298	39.111192
1.188535	-4.111068	29.258797
1.189141	-8.944910	19.356244
1.189746	-13.569773	9.029652
1.190352	-18.022715	-1.176290
1.190957	-22.541874	-11.091315
1.191563	-26.815605	-21.335756
1.192168	-30.962370	-31.335372
1.192773	-34.930530	-41.099652
1.193379	-38.741957	-50.700443
1.193984	-42.313423	-59.923287
1.194590	-45.604834	-68.875007
1.195195	-48.476465	-77.339787
1.195801	-51.161596	-85.319796
1.196406	-53.492556	-92.659951
1.197012	-55.428644	-99.490663
1.197617	-56.998412	-105.622687
1.198223	-58.251068	-111.352904
1.198828	-59.154414	-115.995099
1.199434	-59.714525	-119.893599
1.200039	-59.857286	-123.444517
1.200645	-59.593633	-125.876233
1.201250	-58.913846	-127.426252
1.201855	-57.920591	-128.289784
1.202461	-56.447414	-128.381695
1.203066	-54.614600	-127.535787
1.203672	-52.502946	-125.826346
1.204277	-50.057169	-123.383514
1.204883	-47.221987	-120.189938
1.205488	-44.148667	-116.158045
1.206094	-40.772815	-111.329316
1.206699	-37.180086	-106.020426
1.207305	-33.320060	-99.848005
1.207910	-29.263205	-92.905047
1.208516	-24.932369	-85.698285
1.209121	-20.504942	-77.705534
1.209727	-15.993073	-69.294165
1.210332	-11.267365	-60.435984
1.210937	-6.605445	-51.164337
1.211543	-1.823847	-41.630514
1.212148	2.905505	-31.822041
1.212754	7.730842	-21.863636
1.213359	12.408557	-11.720595
1.213965	17.046786	-1.422471
1.214570	21.646134	8.775337
1.215176	26.099684	18.752992
1.215781	30.428697	29.040000
1.216387	34.359193	39.014130
1.216992	38.247772	48.403444
1.217598	41.956532	57.685393
1.218203	45.348787	66.707063
1.218809	48.471921	75.291137
1.219414	51.146116	83.293921
1.220020	53.588248	90.677998
1.220625	55.777055	97.642375
1.221230	57.529679	104.088632
1.221836	58.959724	109.774114
1.222441	60.116395	114.740845
1.223047	60.832632	119.028680
1.223652	61.005769	122.309016
1.224258	60.807118	125.270509
1.224863	60.266447	127.093822
1.225469	59.354596	127.953287
1.226074	58.016891	128.384646
1.226680	56.309828	127.919125
1.227285	54.268036	126.450443
1.227891	51.861139	124.211497
1.228496	49.143204	121.313988
1.229102	46.057126	117.625339
1.229707	42.721976	113.101355
1.230312	39.116490	107.697842
1.230918	35.206649	101.931836
1.231523	31.094512	95.384178
1.232129	26.899755	88.122107
1.232734	22.539760	80.615481
1.233340	17.977469	72.483914
1.233945	13.345923	63.771055
1.234551	8.670638	54.880610
1.235156	3.879320	45.406433
1.235762	-0.933259	35.629140
1.236367	-5.793831	25.786505
1.236973	-10.574820	15.734833
1.237578	-15.217301	5.467075
1.238184	-19.746788	-4.715550
1.238789	-24.179682	-14.791081
1.239395	-28.419393	-24.803168
