LabVIEW Measurement	
Writer_Version	2
Reader_Version	2
Separator	Tab
Decimal_Separator	.
Multi_Headings	No
X_Columns	One
Time_Pref	Absolute
Operator	AlunosGDS-JT
Date	2019/10/09
Time	15:19:08.4651639249999940857
***End_of_Header***	
	
Channels	2		
Samples	2048	2048	
Date	2019/10/09	2019/10/09	
Time	15:39:30.0970584562499853519	15:39:30.0970584562499853519	
Y_Unit_Label	g	Newtons	
X_Dimension	Time	Time	
X0	0.0000000000000000E+0	0.0000000000000000E+0	
Delta_X	0.000605	0.000605	
***End_of_Header***			
X_Value	Acceleration (Trigger)	Force (Trigger)	Comment
0.000000	8.052815	1.141554
0.000605	8.787884	9.356628
0.001211	9.626228	17.684490
0.001816	10.299333	25.658263
0.002422	11.031365	33.509217
0.003027	11.661338	41.604183
0.003633	12.186214	49.140903
0.004238	12.731138	56.392671
0.004844	13.169142	63.556867
0.005449	13.596819	70.432314
0.006055	13.876874	76.857424
0.006660	14.184267	82.983754
0.007266	14.409648	88.688757
0.007871	14.600401	94.013915
0.008477	14.732228	98.872467
0.009082	14.678768	103.159759
0.009687	14.577924	107.194093
0.010293	14.513529	110.670994
0.010898	14.377450	113.331268
0.011504	14.182444	115.883906
0.012109	13.780890	117.828682
0.012715	13.519059	118.998314
0.013320	13.095635	119.745804
0.013926	12.563469	119.961348
0.014531	12.019760	119.626780
0.015137	11.446892	118.632567
0.015742	10.720327	117.110744
0.016348	10.083672	115.136144
0.016953	9.349818	112.643696
0.017559	8.577691	109.474521
0.018164	7.730842	105.875343
0.018770	6.842684	101.995008
0.019375	5.916253	97.292624
0.019980	4.933325	92.234524
0.020586	4.073719	87.054690
0.021191	3.006349	81.197586
0.021797	2.121228	75.004830
0.022402	1.043531	68.400778
0.023008	0.094623	61.538073
0.023613	-0.930221	54.414004
0.024219	-1.917402	46.989801
0.024824	-2.992061	39.343817
0.025430	-3.843770	31.519434
0.026035	-4.775668	23.559488
0.026641	-5.722754	15.329231
0.027246	-6.633389	7.336750
0.027852	-7.569540	-0.919264
0.028457	-8.343489	-9.349340
0.029062	-9.155711	-17.418006
0.029668	-9.890780	-25.434888
0.030273	-10.497061	-33.458548
0.030879	-11.175633	-41.319263
0.031484	-11.744249	-49.009711
0.032090	-12.194403	-56.407615
0.032695	-12.710774	-63.657486
0.033301	-13.026672	-70.531307
0.033906	-13.367477	-77.060257
0.034512	-13.647533	-83.198517
0.035117	-13.803659	-89.175187
0.035723	-13.851651	-94.562974
0.036328	-13.971328	-99.229299
0.036934	-13.945813	-103.878000
0.037539	-13.849221	-107.936735
0.038145	-13.655430	-111.294070
0.038750	-13.454349	-114.238212
0.039355	-13.204668	-116.626548
0.039961	-12.772132	-118.440100
0.040566	-12.373007	-119.791114
0.041172	-11.893086	-120.479499
0.041777	-11.402837	-120.564632
0.042383	-10.794734	-120.201596
0.042988	-10.169013	-119.112489
0.043594	-9.464926	-117.612628
0.044199	-8.802148	-115.585972
0.044805	-8.032452	-112.606584
0.045410	-7.255465	-109.567820
0.046016	-6.432308	-105.946681
0.046621	-5.583637	-101.624413
0.047227	-4.711881	-96.865635
0.047832	-3.831620	-91.833292
0.048438	-2.851122	-86.233214
0.049043	-1.927729	-80.243802
0.049648	-0.952699	-73.842280
0.050254	-0.022016	-67.176140
0.050859	0.956052	-60.245926
0.051465	1.925007	-52.863746
0.052070	2.813166	-45.229421
0.052676	3.934603	-37.664232
0.053281	4.818509	-29.560591
0.053887	5.693910	-21.359615
0.054492	6.601508	-13.278205
0.055098	7.457469	-5.096480
0.055703	8.371142	3.218097
0.056309	9.109249	11.468146
0.056914	9.832169	19.626555
0.057520	10.591538	27.661873
0.058125	11.219689	35.605010
0.058730	11.857559	43.398214
0.059336	12.404305	50.989701
0.059941	12.887264	58.278885
0.060547	13.361110	65.366352
0.061152	13.673363	71.866563
0.061758	14.053048	78.306585
0.062363	14.286934	84.448098
0.062969	14.482547	90.022961
0.063574	14.653861	95.255665
0.064180	14.732835	99.994380
0.064785	14.668441	104.239377
0.065391	14.662366	108.039730
0.065996	14.520819	111.347450
0.066602	14.358011	114.137593
0.067207	14.084638	116.379250
0.067812	13.711635	117.942012
0.068418	13.401205	119.099172
0.069023	12.921891	119.913630
0.069629	12.411595	119.755022
0.070234	11.894616	119.230396
0.070840	11.312028	118.454438
0.071445	10.636493	116.814405
0.072051	9.922078	114.614772
0.072656	9.181541	111.933621
0.073262	8.326795	108.773393
0.073867	7.482376	105.089353
0.074473	6.590573	100.878517
0.075078	5.650170	96.220326
0.075684	4.698832	91.214283
0.076289	3.729269	85.567300
0.076895	2.744519	79.634282
0.077500	1.798648	73.500360
0.078105	0.763476	66.756950
0.078711	-0.237677	59.645353
0.079316	-1.241867	52.679621
0.079922	-2.282507	45.199294
0.080527	-3.183422	37.448657
0.081133	-4.185790	29.574928
0.081738	-5.106753	21.598986
0.082344	-6.001594	13.508087
0.082949	-6.849050	5.272679
0.083555	-7.737816	-2.945649
0.084160	-8.551860	-11.149878
0.084766	-9.348894	-19.294459
0.085371	-9.998307	-27.603071
0.085977	-10.733984	-35.445620
0.086582	-11.397977	-43.120885
0.087188	-11.938648	-50.907582
0.087793	-12.355997	-58.301420
0.088398	-12.778814	-65.337916
0.089004	-13.230791	-72.145582
0.089609	-13.400282	-78.604854
0.090215	-13.660897	-84.730642
0.090820	-13.753237	-90.419106
0.091426	-13.933663	-95.709017
0.092031	-13.889923	-100.488401
0.092637	-13.818239	-104.876552
0.093242	-13.736834	-108.677176
0.093848	-13.548511	-112.107173
0.094453	-13.233221	-114.967537
0.095059	-12.983540	-116.969520
0.095664	-12.612360	-118.802594
0.096270	-12.208983	-120.022383
0.096875	-11.631862	-120.484921
0.097480	-11.199326	-120.538875
0.098086	-10.665945	-119.992559
0.098691	-9.976437	-118.846516
0.099297	-9.277210	-117.108065
0.099902	-8.564010	-114.829805
0.100508	-7.779126	-112.080874
0.101113	-6.994849	-108.778305
0.101719	-6.220292	-104.791961
0.102324	-5.369799	-100.604985
0.102930	-4.488323	-95.920495
0.103535	-3.511470	-90.384402
0.104141	-2.674341	-84.679128
0.104746	-1.709031	-78.762377
0.105352	-0.677503	-72.225293
0.105957	0.266545	-65.414373
0.106563	1.177788	-58.295456
0.107168	2.132163	-50.953403
0.107773	3.089576	-43.358390
0.108379	4.048204	-35.521806
0.108984	4.943045	-27.507907
0.109590	5.886486	-19.494278
0.110195	6.786187	-11.237180
0.110801	7.584436	-2.975472
0.111406	8.418527	5.044663
0.112012	9.230748	13.483957
0.112617	10.018670	21.634775
0.113223	10.638923	29.635660
0.113828	11.326000	37.523216
0.114434	11.929851	45.290392
0.115039	12.432250	52.733574
0.115645	12.906096	59.957417
0.116250	13.358680	66.965445
0.116855	13.699485	73.625619
0.117461	14.047580	79.908931
0.118066	14.367731	85.708556
0.118672	14.551802	91.322461
0.119277	14.583999	96.511785
0.119883	14.724938	100.913221
0.120488	14.700031	105.204852
0.121094	14.659328	108.978092
0.121699	14.451565	112.122866
0.122305	14.321561	114.787207
0.122910	14.046365	116.872155
0.123516	13.759628	118.485346
0.124121	13.378120	119.498538
0.124727	12.939509	119.961077
0.125332	12.407343	119.864557
0.125938	11.869709	119.224431
0.126543	11.231231	117.926829
0.127148	10.567846	116.230674
0.127754	9.783569	114.112107
0.128359	9.073407	111.123230
0.128965	8.304925	107.773486
0.129570	7.455039	104.141230
0.130176	6.572348	99.883219
0.130781	5.612505	95.030361
0.131387	4.675140	89.862727
0.131992	3.678239	84.302504
0.132598	2.747556	78.282726
0.133203	1.695374	71.840535
0.133809	0.703941	65.147554
0.134414	-0.270481	58.245266
0.135020	-1.351823	50.821062
0.135625	-2.286151	43.175078
0.136230	-3.341371	35.670079
0.136836	-4.325514	27.740771
0.137441	-5.296899	19.561485
0.138047	-6.171085	11.473297
0.138652	-7.024616	3.230026
0.139258	-7.874503	-4.934076
0.139863	-8.698874	-13.134781
0.140469	-9.460673	-21.333858
0.141074	-10.177518	-29.395205
0.141680	-10.873708	-37.360031
0.142285	-11.498213	-45.114193
0.142891	-12.072904	-52.696733
0.143496	-12.517591	-59.951213
0.144102	-12.982325	-67.258291
0.144707	-13.286680	-73.770974
0.145313	-13.605008	-80.016328
0.145918	-13.816416	-86.174651
0.146523	-13.922728	-91.797232
0.147129	-14.004132	-96.890036
0.147734	-14.086144	-101.617364
0.148340	-14.049695	-105.897336
0.148945	-13.851044	-109.592221
0.149551	-13.776929	-112.805590
0.150156	-13.516314	-115.446614
0.150762	-13.159714	-117.654110
0.151367	-12.817086	-119.275706
0.151973	-12.403382	-120.125410
0.152578	-11.929535	-120.709141
0.153184	-11.300170	-120.625635
0.153789	-10.733984	-119.646875
0.154395	-10.205463	-118.431695
0.155000	-9.461888	-116.610552
0.155605	-8.762054	-114.215980
0.156211	-8.000254	-111.277803
0.156816	-7.099946	-107.760504
0.157422	-6.276182	-103.788529
0.158027	-5.405033	-99.377333
0.158633	-4.540567	-94.443950
0.159238	-3.535162	-89.092223
0.159844	-2.658546	-83.405927
0.160449	-1.696881	-77.089267
0.161055	-0.706663	-70.656566
0.161660	0.341267	-63.914512
0.162266	1.267090	-56.533959
0.162871	2.298010	-49.038721
0.163477	3.245095	-41.436388
0.164082	4.241995	-33.610378
0.164687	5.177538	-25.519750
0.165293	6.099717	-17.412042
0.165898	7.089327	-9.226249
0.166504	7.835939	-1.035034
0.167109	8.703442	7.372267
0.167715	9.472532	15.517934
0.168320	10.284146	23.513126
0.168926	11.028935	31.644693
0.169531	11.688675	39.652899
0.170137	12.253039	47.065445
0.170742	12.821047	54.626566
0.171348	13.302183	61.908972
0.171953	13.759628	68.738057
0.172559	14.187304	75.348345
0.173164	14.420583	81.522393
0.173770	14.735265	87.339099
0.174375	14.844007	92.769182
0.174980	14.974011	97.719916
0.175586	15.026863	102.263693
0.176191	14.996488	106.337068
0.176797	14.949104	109.712026
0.177402	14.793585	112.873881
0.178008	14.599794	115.574824
0.178613	14.330066	117.282637
0.179219	13.982578	118.680013
0.179824	13.526957	119.736586
0.180430	13.070120	120.078203
0.181035	12.627256	119.849916
0.181641	12.001535	119.055250
0.182246	11.365488	117.804552
0.182852	10.620698	115.904511
0.183457	9.928153	113.502077
0.184062	9.119577	110.538143
0.184668	8.278195	107.191924
0.185273	7.418589	103.098485
0.185879	6.503701	98.702472
0.186484	5.532316	93.999545
0.187090	4.565790	88.599557
0.187695	3.537301	82.907840
0.188301	2.547083	76.796150
0.188906	1.504621	70.278858
0.189512	0.482206	63.454924
0.190117	-0.512872	56.437678
0.190723	-1.596037	49.084238
0.191328	-2.524290	41.444761
0.191934	-3.588622	33.600586
0.192539	-4.592204	25.673175
0.193145	-5.485223	17.770165
0.193750	-6.438991	9.359339
0.194355	-7.335654	1.116882
0.194961	-8.221990	-6.851740
0.195566	-8.977107	-15.162250
0.196172	-9.775964	-23.367564
0.196777	-10.455144	-31.390953
0.197383	-11.155586	-39.309145
0.197988	-11.812896	-47.018843
0.198594	-12.284313	-54.518419
0.199199	-12.749654	-61.831733
0.199805	-13.177331	-68.779571
0.200410	-13.541828	-75.436763
0.201016	-13.833426	-81.773486
0.201621	-14.044835	-87.589108
0.202227	-14.201568	-93.208978
0.202832	-14.262318	-98.386915
0.203437	-14.314563	-102.669056
0.204043	-14.217363	-106.895345
0.204648	-14.084322	-110.565287
0.205254	-13.823706	-113.534372
0.205859	-13.674262	-116.117647
0.206465	-13.294578	-118.109328
0.207070	-12.875406	-119.595091
0.207676	-12.424644	-120.373760
0.208281	-11.875468	-120.635938
0.208887	-11.369424	-120.394908
0.209492	-10.775901	-119.609460
0.210098	-10.130741	-118.057001
0.210703	-9.440019	-116.140964
0.211309	-8.689762	-113.749374
0.211914	-7.839875	-110.492897
0.212520	-7.028869	-106.893990
0.213125	-6.214825	-102.862368
0.213730	-5.294469	-98.220715
0.214336	-4.386263	-93.243682
0.214941	-3.493853	-87.763441
0.215547	-2.519430	-81.886816
0.216152	-1.541969	-75.602963
0.216758	-0.500115	-68.944686
0.217363	0.430568	-62.021249
0.217969	1.408029	-54.864645
0.218574	2.400676	-47.206732
0.219180	3.369632	-39.555326
0.219785	4.356812	-31.853491
0.220391	5.291140	-23.480622
0.220996	6.201776	-15.305404
0.221602	7.113627	-7.218301
0.222207	8.068610	1.045576
0.222812	8.885084	9.346325
0.223418	9.638378	17.553266
0.224023	10.452422	25.629795
0.224629	11.173519	33.567780
0.225234	11.791342	41.466722
0.225840	12.291311	49.109453
0.226445	12.935256	56.336820
0.227051	13.418823	63.534092
0.227656	13.830704	70.472441
0.228262	14.263241	76.704510
0.228867	14.604046	82.886421
0.229473	14.816062	88.761690
0.230078	15.017143	94.101759
0.230684	15.043266	98.957329
0.231289	15.162335	103.364458
0.231895	15.175092	107.276515
0.232500	15.004993	110.663945
0.233105	14.878027	113.631674
0.233711	14.725545	116.066373
0.234316	14.455210	117.913002
0.234922	14.121087	118.987198
0.235527	13.661821	119.918510
0.236133	13.155777	120.272870
0.236738	12.692865	119.660129
0.237344	12.093875	118.693570
0.237949	11.437172	117.404372
0.238555	10.711823	115.429772
0.239160	9.999838	112.879575
0.239766	9.216776	109.793906
0.240371	8.331048	106.286368
0.240977	7.444104	102.242816
0.241582	6.541973	97.676807
0.242187	5.556616	92.646634
0.242793	4.594343	87.342353
0.243398	3.529403	81.415841
0.244004	2.554980	75.177807
0.244609	1.489433	68.811532
0.245215	0.494963	61.780459
0.245820	-0.543247	54.637953
0.246426	-1.628234	47.280717
0.247031	-2.653079	39.629854
0.247637	-3.636007	31.747992
0.248242	-4.683936	23.813260
0.248848	-5.669901	15.678982
0.249453	-6.574462	7.433542
0.250059	-7.450471	-0.789395
0.250664	-8.348957	-9.005282
0.251270	-9.177581	-17.110280
0.251875	-9.971577	-25.377681
0.252480	-10.590615	-33.543139
0.253086	-11.301385	-41.065219
0.253691	-12.088092	-48.812061
0.254297	-12.525488	-56.370200
0.254902	-12.998120	-63.597025
0.255508	-13.372945	-70.372970
0.256113	-13.832819	-76.973768
0.256719	-14.058200	-83.213700
0.257324	-14.180914	-89.060501
0.257930	-14.421482	-94.467538
0.258535	-14.442744	-99.299520
0.259141	-14.524149	-103.896166
0.259746	-14.371060	-107.830454
0.260352	-14.321245	-111.314676
0.260957	-14.090397	-114.450502
0.261562	-13.844969	-116.706259
0.262168	-13.492014	-118.459892
0.262773	-13.092889	-119.880043
0.263379	-12.623903	-120.573308
0.263984	-12.088092	-120.641903
0.264590	-11.568075	-120.312486
0.265195	-10.856091	-119.305801
0.265801	-10.147751	-117.671462
0.266406	-9.477076	-115.511684
0.267012	-8.746259	-112.907532
0.267617	-7.913990	-109.798818
0.268223	-7.016719	-106.058113
0.268828	-6.150430	-101.638783
0.269434	-5.336386	-97.288589
0.270039	-4.326729	-92.040973
0.270645	-3.374783	-86.294217
0.271250	-2.374238	-80.354963
0.271855	-1.367011	-74.060264
0.272461	-0.282631	-67.341797
0.273066	0.726419	-60.189803
0.273672	1.662569	-52.931256
0.274277	2.650965	-45.391825
0.274883	3.711652	-37.637662
0.275488	4.678177	-29.642470
0.276094	5.611898	-21.563501
0.276699	6.626415	-13.513270
0.277305	7.550416	-5.116001
0.277910	8.437359	3.030750
0.278516	9.228318	11.236063
0.279121	10.055727	19.607847
0.279727	10.800517	27.655638
0.280332	11.507642	35.592809
0.280938	12.114530	43.376524
0.281543	12.755437	51.020881
0.282148	13.269379	58.246079
0.282754	13.757198	65.279863
0.283359	14.177584	72.072618
0.283965	14.494090	78.509115
0.284570	14.794192	84.419901
0.285176	15.052985	89.896075
0.285781	15.207897	95.364386
0.286387	15.286871	100.170611
0.286992	15.333648	104.246698
0.287598	15.285656	108.117814
0.288203	15.198784	111.510396
0.288809	14.989198	114.317348
0.289414	14.746200	116.510746
0.290020	14.462500	118.244045
0.290625	14.057300	119.459768
0.291230	13.585276	120.105315
0.291836	13.147272	120.116974
0.292441	12.591414	119.626238
0.293047	11.911019	118.644496
0.293652	11.243989	116.855887
0.294258	10.496769	114.840347
0.294863	9.771419	112.276323
0.295469	8.916673	108.944473
0.296074	8.006645	105.379727
0.296680	7.116057	101.229081
0.297285	6.127661	96.496060
0.297891	5.216418	91.406239
0.298496	4.115636	85.929252
0.299102	3.084109	80.038528
0.299707	2.149781	73.685809
0.300312	1.035634	67.012349
0.300918	0.038734	60.060444
0.301523	-1.074198	52.958879
0.302129	-2.071098	45.304219
0.302734	-3.097158	37.547346
0.303340	-4.114105	29.988393
0.303945	-5.093388	21.882311
0.304551	-5.994304	13.636871
0.305156	-6.949287	5.430744
0.305762	-7.830763	-2.742034
0.306367	-8.686724	-10.962260
0.306973	-9.460673	-19.150763
0.307578	-10.290512	-27.354721
0.308184	-10.983665	-35.303009
0.308789	-11.592983	-43.126037
0.309395	-12.201693	-50.809164
0.310000	-12.653670	-58.095094
0.310605	-13.133591	-65.329782
0.311211	-13.527248	-72.263793
0.311816	-13.857726	-78.457633
0.312422	-14.102547	-84.714103
0.313027	-14.247738	-90.494208
0.313633	-14.436669	-95.742366
0.314238	-14.419659	-100.500331
0.314844	-14.390500	-104.918305
0.315449	-14.234981	-108.801893
0.316055	-14.177269	-112.128320
0.316660	-13.892353	-114.890266
0.317266	-13.576456	-117.226818
0.317871	-13.167611	-119.070194
0.318477	-12.742972	-120.060883
0.319082	-12.346277	-120.632684
0.319688	-11.755792	-120.832774
0.320293	-11.144651	-120.056816
0.320898	-10.492201	-118.854921
0.321504	-9.869518	-117.282398
0.322109	-9.100429	-115.032064
0.322715	-8.328909	-112.216165
0.323320	-7.501500	-108.872115
0.323926	-6.669839	-105.064441
0.324531	-5.768923	-100.730244
0.325137	-4.880765	-95.948963
0.325742	-3.978026	-90.702431
0.326348	-3.021221	-85.099371
0.326953	-1.979366	-78.923967
0.327559	-1.082703	-72.404777
0.328164	-0.077298	-65.852510
0.328770	0.915350	-58.599386
0.329375	1.998514	-51.105232
0.329980	2.963825	-43.554685
0.330586	3.932780	-35.770427
0.331191	4.940008	-27.731856
0.331797	5.837279	-19.600017
0.332402	6.742447	-11.482548
0.333008	7.752712	-3.221653
0.333613	8.473202	5.053339
0.334219	9.339490	13.400722
0.334824	10.091570	21.333555
0.335430	10.881314	29.395173
0.336035	11.464509	37.526469
0.336641	12.119997	45.093556
0.337246	12.661883	52.582558
0.337852	13.273024	59.932474
0.338457	13.709813	66.929927
0.339062	14.092535	73.549162
0.339668	14.412078	79.843861
0.340273	14.679983	85.780675
0.340879	14.927234	91.309990
0.341484	15.088220	96.458645
0.342090	15.119810	101.078336
0.342695	15.128315	105.262601
0.343301	15.115557	108.971856
0.343906	14.979479	112.026617
0.344512	14.807557	114.962082
0.345117	14.496520	116.985485
0.345723	14.195809	118.422716
0.346328	13.777852	119.589094
0.346934	13.356250	120.103960
0.347539	12.796747	119.992798
0.348145	12.281591	119.315529
0.348750	11.615776	118.197412
0.349355	10.949961	116.493123
0.349961	10.246481	114.254447
0.350566	9.434259	111.334436
0.351172	8.588018	108.158483
0.351777	7.676775	104.390123
0.352383	6.840254	99.904367
0.352988	5.891346	95.254310
0.353594	4.880473	90.250435
0.354199	3.864133	84.572002
0.354805	2.858121	78.457330
0.355410	1.884305	72.124403
0.356016	0.865535	65.417866
0.356621	-0.210339	58.430172
0.357227	-1.227287	51.121468
0.357832	-2.306806	43.572276
0.358438	-3.295809	35.807268
0.359043	-4.282382	27.923780
0.359648	-5.250730	19.825832
0.360254	-6.204498	11.775059
0.360859	-7.085366	3.443944
0.361465	-7.932822	-4.890154
0.362070	-8.822196	-12.858234
0.362676	-9.587033	-21.050804
0.363281	-10.328177	-29.226294
0.363887	-11.057172	-37.173497
0.364492	-11.662845	-44.893498
0.365098	-12.202301	-52.497999
0.365703	-12.684045	-59.882348
0.366309	-13.148779	-66.944600
0.366914	-13.521781	-73.612366
0.367520	-13.813986	-80.063775
0.368125	-13.970720	-86.242432
0.368730	-14.153576	-91.726198
0.369336	-14.291478	-96.802734
0.369941	-14.284795	-101.727169
0.370547	-14.202176	-105.944783
0.371152	-14.054555	-109.600355
0.371758	-13.927588	-112.790678
0.372363	-13.619588	-115.514666
0.372969	-13.315233	-117.623202
0.373574	-12.900921	-119.220397
0.374180	-12.476281	-120.228167
0.374785	-11.964163	-120.654917
0.375391	-11.447791	-120.569512
0.375996	-10.847586	-119.811177
0.376602	-10.176911	-118.644799
0.377207	-9.484973	-116.844261
0.377812	-8.782709	-114.215980
0.378418	-7.999039	-111.512597
0.379023	-7.154013	-108.104290
0.379629	-6.281042	-103.992415
0.380234	-5.406248	-99.553564
0.380840	-4.431218	-94.658139
0.381445	-3.544275	-89.342742
0.382051	-2.609339	-83.509226
0.382656	-1.655571	-77.381811
0.383262	-0.667783	-70.879973
0.383867	0.344304	-64.033536
0.384473	1.267090	-56.791528
0.385078	2.277355	-49.403926
0.385684	3.299770	-41.887269
0.386289	4.245640	-33.791489
0.386895	5.170856	-25.731770
0.387500	6.068734	-17.748778
0.388105	7.003062	-9.514997
0.388711	7.860239	-1.262507
0.389316	8.688255	7.033362
0.389922	9.447017	15.237591
0.390527	10.223396	23.358856
0.391133	10.972438	31.375195
0.391738	11.551989	39.243772
0.392344	12.148549	46.943981
0.392949	12.753615	54.403159
0.393555	13.142412	61.670382
0.394160	13.604716	68.350620
0.394766	13.994121	74.964161
0.395371	14.303336	81.396591
0.395977	14.515959	87.146872
0.396582	14.701246	92.510258
0.397187	14.736480	97.528231
0.397793	14.865269	102.124335
0.398398	14.870129	106.074077
0.399004	14.787510	109.649397
0.399609	14.580961	112.808269
0.400215	14.421798	115.360907
0.400820	14.161790	117.257152
0.401426	13.786357	118.616299
0.402031	13.390878	119.700526
0.402637	12.866609	119.943996
0.403242	12.463232	119.627323
0.403848	11.863634	119.134689
0.404453	11.149827	117.837901
0.405059	10.540509	115.928370
0.405664	9.745905	113.493672
0.406270	9.009620	110.625716
0.406875	8.145761	107.239099
0.407480	7.289800	103.299388
0.408086	6.421082	98.900664
0.408691	5.456379	94.067055
0.409297	4.498358	88.816728
0.409902	3.544590	82.969656
0.410508	2.531288	77.013049
0.411113	1.527705	70.553507
0.411719	0.590947	63.567712
0.412324	-0.525629	56.594930
0.412930	-1.535287	49.338553
0.413535	-2.467793	41.745981
0.414141	-3.527872	33.894214
0.414746	-4.468275	25.983341
0.415352	-5.392884	17.921724
0.415957	-6.253705	9.731322
0.416563	-7.119386	1.485882
0.417168	-8.021517	-6.706146
0.417773	-8.833131	-14.864826
0.418379	-9.568808	-23.258571
0.418984	-10.266213	-31.263524
0.419590	-10.935673	-38.950718
0.420195	-11.520083	-46.823091
0.420801	-12.006080	-54.330259
0.421406	-12.456841	-61.586908
0.422012	-12.868723	-68.535017
0.422617	-13.318878	-75.201427
0.423223	-13.524211	-81.517545
0.423828	-13.690057	-87.416673
0.424434	-13.827959	-92.967948
0.425039	-13.922121	-98.031470
0.425645	-13.971935	-102.667700
0.426250	-13.848006	-106.755987
0.426855	-13.748984	-110.432436
0.427461	-13.526641	-113.616252
0.428066	-13.260558	-115.898036
0.428672	-12.970175	-118.035311
0.429277	-12.597780	-119.576654
0.429883	-12.122719	-120.390841
0.430488	-11.621535	-120.654374
0.431094	-11.150726	-120.478143
0.431699	-10.494023	-119.679410
0.432305	-9.885313	-118.238112
0.432910	-9.182441	-116.245347
0.433516	-8.471671	-113.732836
0.434121	-7.650337	-110.785712
0.434727	-6.892790	-107.132308
0.435332	-6.050194	-103.049172
0.435937	-5.114651	-98.659937
0.436543	-4.338879	-93.439163
0.437148	-3.403943	-87.943468
0.437754	-2.479943	-82.154145
0.438359	-1.520100	-75.923432
0.438965	-0.528667	-69.254852
0.439570	0.394726	-62.322469
0.440176	1.296857	-55.084527
0.440781	2.315020	-47.587391
0.441387	3.273040	-39.899654
0.441992	4.211621	-32.004236
0.442598	5.090059	-24.008231
0.443203	5.969713	-15.912723
0.443809	6.844506	-7.544192
0.444414	7.797667	0.560263
0.445020	8.606243	8.795671
0.445625	9.317620	17.204328
0.446230	10.109187	25.238291
0.446836	10.788974	33.162720
0.447441	11.383105	41.015571
0.448047	11.943216	48.681347
0.448652	12.518514	56.063255
0.449258	12.998436	63.133099
0.449863	13.451627	69.982790
0.450469	13.777852	76.511198
0.451074	14.121087	82.647831
0.451680	14.392638	88.188533
0.452285	14.554232	93.776681
0.452891	14.631991	98.661803
0.453496	14.664796	102.892159
0.454102	14.692133	106.918088
0.454707	14.611944	110.417221
0.455313	14.500165	113.417215
0.455918	14.280859	115.841068
0.456523	13.960101	117.661670
0.457129	13.653923	118.976353
0.457734	13.282744	119.812772
0.458340	12.749970	119.981953
0.458945	12.280376	119.670974
0.459551	11.666198	118.834283
0.460156	11.047768	117.214856
0.460762	10.354008	115.336234
0.461367	9.660855	112.998869
0.461973	8.841951	109.736970
0.462578	8.044917	106.233227
0.463184	7.199283	102.250679
0.463789	6.338462	97.739708
0.464395	5.361002	92.733936
0.465000	4.449759	87.380852
0.465605	3.495991	81.627318
0.466211	2.482081	75.424802
0.466816	1.536210	68.831595
0.467422	0.519870	61.962654
0.468027	-0.483105	54.958151
0.468633	-1.543792	47.459388
0.469238	-2.408258	39.702786
0.469844	-3.505395	32.120517
0.470449	-4.512015	24.101195
0.471055	-5.418398	15.857381
0.471660	-6.340577	7.780581
0.472266	-7.265792	-0.488447
0.472871	-8.067686	-8.672884
0.473477	-8.894488	-16.831022
0.474082	-9.588248	-25.011392
0.474687	-10.311775	-32.997908
0.475293	-10.979412	-40.884650
0.475898	-11.577795	-48.614140
0.476504	-12.111176	-56.035903
0.477109	-12.575910	-63.216637
0.477715	-12.984755	-70.340164
0.478320	-13.302475	-76.773407
0.478926	-13.584353	-82.869643
0.479531	-13.735012	-88.834654
0.480137	-13.937308	-94.265008
0.480742	-13.961608	-99.194052
0.481348	-13.919083	-103.670048
0.481953	-13.925766	-107.764300
0.482559	-13.756882	-111.259095
0.483164	-13.649963	-114.178564
0.483770	-13.295185	-116.578288
0.484375	-12.959848	-118.559395
0.484980	-12.528526	-119.940232
0.485586	-12.182861	-120.433950
0.486191	-11.651910	-120.755775
0.486797	-11.033479	-120.464316
0.487402	-10.445424	-119.355417
0.488008	-9.893818	-117.822478
0.488613	-9.167861	-115.696048
0.489219	-8.438259	-113.095422
0.489824	-7.671599	-109.892356
0.490430	-6.856948	-106.185541
0.491035	-5.986407	-101.982840
0.491641	-5.127408	-97.380229
0.492246	-4.203407	-92.236183
0.492852	-3.315249	-86.670538
0.493457	-2.400968	-80.877691
0.494063	-1.394348	-74.386698
0.494668	-0.477637	-67.630003
0.495273	0.504075	-60.832368
0.495879	1.482751	-53.379696
0.496484	2.439556	-45.787395
0.497090	3.390287	-38.093965
0.497695	4.397514	-30.097688
0.498301	5.234643	-22.019261
0.498906	6.238833	-13.805814
0.499512	7.043765	-5.646049
0.500117	7.878463	2.579327
0.500723	8.701012	10.894446
0.501328	9.431222	19.144496
0.501934	10.217321	27.027984
0.502539	10.998560	35.054898
0.503145	11.490632	43.072051
0.503750	12.095090	50.509811
0.504355	12.666743	57.775136
0.504961	13.186759	64.852842
0.505566	13.576164	71.687892
0.506172	13.957064	78.073147
0.506777	14.197632	84.058492
0.507383	14.492875	89.710355
0.507988	14.580354	94.958784
0.508594	14.664796	99.727865
0.509199	14.795407	104.024647
0.509805	14.768070	107.907693
0.510410	14.621664	111.208092
0.511016	14.471612	113.836915
0.511621	14.235297	116.378979
0.512227	13.961924	118.032568
0.512832	13.625979	119.190541
0.513437	13.144235	119.847747
0.514043	12.729315	119.975718
0.514648	12.226309	119.449465
0.515254	11.617598	118.422716
0.515859	10.920193	116.847483
0.516465	10.264098	114.791003
0.517070	9.550291	112.151876
0.517676	8.796389	108.871811
0.518281	7.922203	105.328214
0.518887	7.056522	101.344580
0.519492	6.164111	96.390593
0.520098	5.244970	91.425760
0.520703	4.279053	86.138018
0.521309	3.265143	80.162161
0.521914	2.265205	73.861227
0.522520	1.334522	67.241992
0.523125	0.258647	60.347565
0.523730	-0.839097	53.150022
0.524336	-1.721788	45.657224
0.524941	-2.770933	37.926107
0.525547	-3.753253	30.105519
0.526152	-4.716134	22.070743
0.526758	-5.612189	13.849704
0.527363	-6.516143	5.794594
0.527969	-7.439536	-2.484737
0.528574	-8.274842	-10.827240
0.529180	-9.043324	-18.894008
0.529785	-9.803908	-27.025034
0.530391	-10.520753	-35.041916
0.530996	-11.206008	-42.857623
0.531602	-11.726632	-50.449924
0.532207	-12.224171	-57.904223
0.532813	-12.696195	-65.064080
0.533418	-13.072234	-71.789596
0.534023	-13.417292	-78.222026
0.534629	-13.693095	-84.437556
0.535234	-13.784827	-90.389011
0.535840	-14.032685	-95.490491
0.536445	-14.161474	-100.259030
0.537051	-13.999880	-104.790877
0.537656	-13.905111	-108.682870
0.538262	-13.843146	-112.025564
0.538867	-13.574026	-114.814351
0.539473	-13.253875	-117.108607
0.540078	-13.038822	-118.960659
0.540684	-12.543713	-120.095315
0.541289	-12.152486	-120.694230
0.541895	-11.569290	-120.756046
0.542500	-11.060209	-120.325229
0.543105	-10.422339	-119.043623
0.543711	-9.802693	-117.516379
0.544316	-8.991079	-115.332742
0.544922	-8.275450	-112.323530
0.545527	-7.490566	-109.107993
0.546133	-6.703251	-105.314147
0.546738	-5.929302	-100.995133
0.547344	-4.985254	-96.293562
0.547949	-4.010831	-90.992535
0.548555	-3.156693	-85.346366
0.549160	-2.217504	-79.236032
0.549766	-1.216959	-72.830714
0.550371	-0.275949	-66.071308
0.550977	0.711231	-58.997126
0.551582	1.660747	-51.594883
0.552187	2.615730	-43.942122
0.552793	3.542160	-36.446612
0.553398	4.593128	-28.157792
0.554004	5.460024	-19.966848
0.554609	6.353650	-11.901977
0.555215	7.235733	-3.721607
0.555820	8.051600	4.607881
0.556426	8.883261	12.898057
0.557031	9.597676	20.968893
0.557637	10.422047	29.018038
0.558242	11.092115	36.987474
0.558848	11.726948	44.803181
0.559453	12.297386	52.208135
0.560059	12.789457	59.421133
0.560664	13.234144	66.585057
0.561270	13.640558	73.103705
0.561875	14.046973	79.412773
0.562480	14.359833	85.461291
0.563086	14.563952	90.980844
0.563691	14.659328	96.169897
0.564297	14.720078	100.783081
0.564902	14.807557	104.974667
0.565508	14.810595	108.648405
0.566113	14.706106	111.936332
0.566719	14.488015	114.621821
0.567324	14.308196	116.731170
0.567930	13.994728	118.236996
0.568535	13.612006	119.283537
0.569141	13.170964	120.059766
0.569746	12.694688	119.876215
0.570352	12.131540	119.086158
0.570957	11.544091	118.138849
0.571562	10.825424	116.477126
0.572168	10.119514	114.207272
0.572773	9.444587	111.394083
0.573379	8.606243	108.170412
0.573984	7.696215	104.395274
0.574590	6.810486	100.079513
0.575195	5.924758	95.290369
0.575801	4.997112	90.148763
0.576406	3.947967	84.677470
0.577012	2.994807	78.432929
0.577617	2.062301	72.175645
0.578223	0.975492	65.623920
0.578828	-0.041456	58.501749
0.579434	-1.080880	51.251337
0.580039	-2.086285	43.739831
0.580645	-3.089868	35.995700
0.581250	-4.041814	28.104349
0.581855	-4.986469	20.124069
0.582461	-5.931732	11.930413
0.583066	-6.821105	3.721304
0.583672	-7.728704	-4.560467
0.584277	-8.571908	-12.715622
0.584883	-9.389597	-20.811672
0.585488	-10.104619	-29.109711
0.586094	-10.693282	-37.028717
0.586699	-11.444146	-44.560286
0.587305	-12.064399	-52.242058
0.587910	-12.491469	-59.706117
0.588516	-12.905781	-66.765929
0.589121	-13.398459	-73.463790
0.589727	-13.648140	-79.898931
0.590332	-13.873521	-85.957752
0.590938	-14.042405	-91.630491
0.591543	-14.120164	-96.731157
0.592148	-14.182129	-101.535484
0.592754	-14.117734	-105.874019
0.593359	-14.025395	-109.497870
0.593965	-13.882026	-112.804505
0.594570	-13.622018	-115.636401
0.595176	-13.266633	-117.603410
0.595781	-12.957418	-119.227988
0.596387	-12.516983	-120.304353
0.596992	-12.033417	-120.757944
0.597598	-11.520083	-120.649765
0.598203	-10.934458	-119.955415
0.598809	-10.288082	-118.733186
0.599414	-9.632595	-116.882218
0.600020	-8.866543	-114.518555
0.600625	-8.146053	-111.632976
0.601230	-7.307709	-108.319292
0.601836	-6.429878	-104.256761
0.602441	-5.638312	-99.757178
0.603047	-4.698516	-95.138300
0.603652	-3.759328	-89.690323
0.604258	-2.865095	-83.805294
0.604863	-1.852400	-77.693062
0.605469	-0.825732	-71.164654
0.606074	0.075184	-64.310083
0.606680	1.103673	-57.083258
0.607285	2.017954	-49.726835
0.607891	3.056164	-42.095763
0.608496	4.032409	-34.255926
0.609102	4.970382	-26.133847
0.609707	5.901066	-18.137842
0.610313	6.780112	-9.974011
0.610918	7.695000	-1.528210
0.611523	8.528484	6.632640
0.612129	9.306078	14.751736
0.612734	10.090355	23.021848
0.613340	10.874631	31.017853
0.613945	11.501567	38.905409
0.614551	12.059248	46.596399
0.615156	12.628471	54.017620
0.615762	13.175217	61.218417
0.616367	13.618689	68.176558
0.616973	13.999588	74.698730
0.617578	14.249269	80.999123
0.618184	14.535399	86.793597
0.618789	14.782042	92.108722
0.619395	14.792977	97.325430
0.620000	14.786295	101.963558
0.620605	14.916906	105.866938
0.621211	14.803912	109.443071
0.621816	14.649608	112.602756
0.622422	14.398105	115.165697
0.623027	14.184267	117.112913
0.623633	13.906034	118.615215
0.624238	13.447982	119.557915
0.624844	12.922499	119.884891
0.625449	12.438325	119.687241
0.626055	11.911626	118.897998
0.626660	11.234876	117.751954
0.627266	10.525321	115.712826
0.627871	9.813944	113.348349
0.628477	9.041817	110.690786
0.629082	8.187679	107.240184
0.629687	7.314100	103.299931
0.630293	6.420474	98.913407
0.630898	5.467314	94.050788
0.631504	4.540883	88.789616
0.632109	3.409726	83.082444
0.632715	2.482688	77.016845
0.633320	1.528920	70.610172
0.633926	0.457298	63.764548
0.634531	-0.605819	56.591677
0.635137	-1.632486	49.431006
0.635742	-2.690743	41.738660
0.636348	-3.627502	33.780341
0.636953	-4.580662	26.156590
0.637559	-5.541720	18.083585
0.638164	-6.433523	9.848990
0.638770	-7.340514	1.617378
0.639375	-8.197083	-6.582242
0.639980	-8.990472	-14.758546
0.640586	-9.746804	-22.965215
0.641191	-10.475799	-31.070754
0.641797	-11.147081	-38.912761
0.642402	-11.736352	-46.567692
0.643008	-12.279453	-54.277118
0.643613	-12.730214	-61.453514
0.644219	-13.205883	-68.338180
0.644824	-13.547296	-75.234504
0.645430	-13.736227	-81.500735
0.646035	-13.964645	-87.320424
0.646641	-14.060022	-92.847298
0.647246	-14.191241	-97.954200
0.647852	-14.198531	-102.575789
0.648457	-14.067919	-106.698509
0.649062	-13.999272	-110.371976
0.649668	-13.714965	-113.444088
0.650273	-13.470144	-116.055831
0.650879	-13.167611	-118.045343
0.651484	-12.766664	-119.710590
0.652090	-12.202301	-120.528844
0.652695	-11.795279	-120.625364
0.653301	-11.244888	-120.491971
0.653906	-10.590008	-119.788131
0.654512	-9.972185	-118.341411
0.655117	-9.175151	-116.294963
0.655723	-8.407276	-113.794110
0.656328	-7.683142	-110.815535
0.656934	-6.829003	-107.201445
0.657539	-5.952387	-103.154911
0.658145	-5.133483	-98.661835
0.658750	-4.174248	-93.672330
0.659355	-3.196787	-88.189107
0.659961	-2.343256	-82.339052
0.660566	-1.321449	-76.260169
0.661172	-0.280809	-69.445182
0.661777	0.618285	-62.450710
0.662383	1.579950	-55.349958
0.662988	2.537363	-47.859600
0.663594	3.541553	-40.151800
0.664199	4.492283	-32.254213
0.664805	5.427219	-24.245736
0.665410	6.293508	-16.089496
0.666016	7.233911	-7.881200
0.666621	8.085012	0.358817
0.667227	8.953123	8.637606
0.667832	9.693660	16.813367
0.668438	10.434197	25.007022
0.669043	11.072067	32.740850
0.669648	11.689890	40.670430
0.670254	12.317433	48.580760
0.670859	12.832589	55.839306
0.671465	13.340456	62.910235
0.672070	13.772992	69.781886
0.672676	14.130807	76.309481
0.673281	14.390815	82.395685
0.673887	14.624701	88.095808
0.674492	14.755920	93.477088
0.675098	14.847044	98.457646
0.675703	14.816670	102.794555
0.676309	14.906579	106.642897
0.676914	14.728583	110.291420
0.677520	14.551802	113.190283
0.678125	14.358618	115.442244
0.678730	14.043328	117.484354
0.679336	13.715888	118.854346
0.679941	13.252976	119.647657
0.680547	12.722633	119.885704
0.681152	12.248179	119.499352
0.681758	11.612738	118.631211
0.682363	10.982766	117.222990
0.682969	10.266528	115.249203
0.683574	9.493794	112.784952
0.684180	8.671853	109.690879
0.684785	7.837154	106.022564
0.685391	6.970258	102.240918
0.685996	5.897421	97.658913
0.686602	5.097956	92.518934
0.687207	4.109561	87.302769
0.687813	3.102941	81.650093
0.688418	2.009449	75.361088
0.689023	1.087879	68.742395
0.689629	0.069109	61.976753
0.690234	-0.950269	54.901215
0.690840	-1.966001	47.488399
0.691445	-2.993276	39.793613
0.692051	-3.948259	31.985497
0.692656	-4.996189	24.085469
0.693262	-5.912900	15.872564
0.693867	-6.753066	7.705208
0.694473	-7.700759	-0.325501
0.695078	-8.582235	-8.714366
0.695684	-9.331884	-16.965771
0.696289	-10.079104	-25.002716
0.696895	-10.699964	-32.986249
0.697500	-11.466624	-40.895766
0.698105	-11.999397	-48.555306
0.698711	-12.553433	-56.034277
0.699316	-12.931295	-63.267066
0.699922	-13.341355	-70.177760
0.700527	-13.658467	-76.720267
0.701133	-13.933055	-82.864763
0.701738	-14.084929	-88.833570
0.702344	-14.211288	-94.386472
0.702949	-14.282973	-99.049272
0.703555	-14.269000	-103.562140
0.704160	-14.163296	-107.729596
0.704766	-13.923336	-111.189958
0.705371	-13.701600	-114.109156
0.705977	-13.451919	-116.549277
0.706582	-13.121441	-118.517913
0.707187	-12.623295	-119.822564
0.707793	-12.209591	-120.527759
0.708398	-11.687145	-120.677149
0.709004	-11.141006	-120.384063
0.709609	-10.421124	-119.408015
0.710215	-9.808161	-117.785063
0.710820	-9.050614	-115.923522
0.711426	-8.272412	-113.201703
0.712031	-7.442573	-109.908895
0.712637	-6.641287	-106.310259
0.713242	-5.771353	-102.092916
0.713848	-4.867400	-97.460482
0.714453	-3.922744	-92.393164
0.715059	-2.990846	-86.821012
0.715664	-2.018853	-80.847054
0.716270	-1.021953	-74.526056
0.716875	-0.065755	-67.833617
0.717480	0.956660	-60.876561
0.718086	1.927437	-53.592258
0.718691	2.952890	-45.872528
0.719297	3.948575	-38.331470
0.719902	4.878651	-30.428189
0.720508	5.743117	-22.174344
0.721113	6.767962	-13.962524
0.721719	7.577146	-5.885181
0.722324	8.434322	2.365139
0.722930	9.279348	10.733670
0.723535	10.058157	18.905364
0.724141	10.754347	26.890795
0.724746	11.451752	34.832576
0.725352	11.999106	42.694103
0.725957	12.570759	50.280711
0.726562	13.197087	57.425114
0.727168	13.616866	64.635400
0.727773	13.962531	71.470179
0.728379	14.313663	77.628773
0.728984	14.608906	83.788994
0.729590	14.744378	89.519212
0.730195	14.881672	94.749476
0.730801	14.929056	99.541060
0.731406	14.975834	103.850856
0.732012	14.902934	107.614878
0.732617	14.796622	111.001766
0.733223	14.569419	113.855623
0.733828	14.334318	116.121682
0.734434	13.967998	117.852812
0.735039	13.604716	118.855973
0.735645	13.161852	119.694833
0.736250	12.601741	119.877299
0.736855	12.099342	119.228498
0.737461	11.466332	118.228320
0.738066	10.736730	116.802747
0.738672	10.081850	114.757112
0.739277	9.269021	111.995437
0.739883	8.373572	108.875878
0.740488	7.550416	105.276971
0.741094	6.589965	101.072643
0.741699	5.725499	96.424483
0.742305	4.711589	91.385904
0.742910	3.728662	86.062916
0.743516	2.679517	80.031208
0.744121	1.714814	73.604472
0.744727	0.700904	67.288354
0.745332	-0.375578	60.278429
0.745938	-1.385843	53.032896
0.746543	-2.357228	45.643667
0.747148	-3.375391	37.870255
0.747754	-4.382011	30.050210
0.748359	-5.341246	22.091891
0.748965	-6.301089	13.952460
0.749570	-7.137611	5.744707
0.750176	-8.001469	-2.530828
0.750781	-8.842851	-10.712825
0.751387	-9.624697	-18.776611
0.751992	-10.386497	-27.076819
0.752598	-10.967870	-35.115119
0.753203	-11.632470	-42.612798
0.753809	-12.194403	-50.284809
0.754414	-12.626940	-57.850269
0.755020	-13.039430	-64.957257
0.755625	-13.479256	-71.695516
0.756230	-13.704637	-78.233142
0.756836	-13.866838	-84.376282
0.757441	-14.071564	-90.159098
0.758047	-14.183951	-95.410238
0.758652	-14.211288	-100.276924
0.759258	-14.153576	-104.800908
0.759863	-13.956140	-108.592314
0.760469	-13.792117	-111.903829
0.761074	-13.566128	-114.997632
0.761680	-13.221071	-117.131382
0.762285	-12.895453	-118.821572
0.762891	-12.398522	-120.065492
0.763496	-12.010332	-120.707244
0.764102	-11.389472	-120.736796
0.764707	-10.763144	-120.211357
0.765312	-10.119199	-119.125503
0.765918	-9.427261	-117.450767
0.766523	-8.711632	-115.210735
0.767129	-7.906092	-112.462346
0.767734	-7.102376	-109.269583
0.768340	-6.265247	-105.401449
0.768945	-5.425081	-100.962598
0.769551	-4.470705	-96.423159
0.770156	-3.533947	-91.186660
0.770762	-2.618452	-85.349077
0.771367	-1.730901	-79.320351
0.771973	-0.695728	-72.945129
0.772578	0.261077	-66.177860
0.773184	1.189330	-59.039964
0.773789	2.133986	-51.722312
0.774395	3.145466	-44.150887
0.775000	4.040307	-36.422211
0.775605	4.978280	-28.305555
0.776211	5.868261	-20.307110
0.776816	6.811094	-12.218922
0.777422	7.647615	-3.817043
0.778027	8.444042	4.340010
0.778633	9.294535	12.489743
0.779238	9.980398	20.815436
0.779844	10.692383	28.824456
0.780449	11.314458	36.693846
0.781055	11.940178	44.509011
0.781660	12.444400	52.018890
0.782266	12.931611	59.215891
0.782871	13.376905	66.203313
0.783477	13.793647	72.946452
0.784082	14.114405	79.257419
0.784687	14.409040	85.142719
0.785293	14.568204	90.536742
0.785898	14.693348	95.990142
0.786504	14.687273	100.635590
0.787109	14.743770	104.614071
0.787715	14.611336	108.364809
0.788320	14.501380	111.716179
0.788926	14.287541	114.366964
0.789531	14.035430	116.514542
0.790137	13.738973	118.148067
0.790742	13.362325	119.276216
0.791348	12.842309	119.723301
0.791953	12.390333	119.627865
0.792559	11.821109	119.078295
0.793164	11.139499	117.996780
0.793770	10.483404	116.142016
0.794375	9.742867	114.050562
0.794980	9.052752	111.421467
0.795586	8.210156	107.983065
0.796191	7.277043	104.237208
0.796797	6.369445	100.015528
0.797402	5.538391	95.238042
0.798008	4.562145	90.099418
0.798613	3.515431	84.570918
0.799219	2.545868	78.587470
0.799824	1.534388	72.175645
0.800430	0.579405	65.484291
0.801035	-0.402308	58.578206
0.801641	-1.470893	51.395575
0.802246	-2.472653	43.585832
0.802852	-3.433103	35.978890
0.803457	-4.443976	28.329653
0.804063	-5.402603	20.185885
0.804668	-6.301697	11.953730
0.805273	-7.131536	3.809420
0.805879	-8.017264	-4.375288
0.806484	-8.850748	-12.568401
0.807090	-9.599182	-20.820891
0.807695	-10.293550	-28.914230
0.808301	-10.984880	-36.804225
0.808906	-11.605133	-44.583060
0.809512	-12.128794	-52.272424
0.810117	-12.605678	-59.479456
0.810723	-13.077094	-66.780570
0.811328	-13.401497	-73.439660
0.811934	-13.660290	-79.696943
0.812539	-13.896606	-85.855809
0.813145	-14.034507	-91.513365
0.813750	-14.127454	-96.672865
0.814355	-14.086144	-101.384468
0.814961	-14.077032	-105.737101
0.815566	-13.923943	-109.496785
0.816172	-13.812164	-112.750551
0.816777	-13.484724	-115.403505
0.817383	-13.203453	-117.700743
0.817988	-12.732037	-119.400965
0.818594	-12.359642	-120.269377
0.819199	-11.856028	-120.726222
0.819805	-11.272833	-120.852024
0.820410	-10.604588	-119.994457
0.821016	-10.051159	-118.729932
0.821621	-9.415111	-116.967080
0.822227	-8.619900	-114.656557
0.822832	-7.864175	-111.728412
0.823438	-6.972979	-108.269405
0.824043	-6.143140	-104.377141
0.824648	-5.250122	-100.013391
0.825254	-4.406918	-95.120406
0.825859	-3.570397	-89.740481
0.826465	-2.542515	-84.150706
0.827070	-1.578419	-77.950359
0.827676	-0.620399	-71.312688
0.828281	0.378324	-64.693724
0.828887	1.310222	-57.459578
0.829492	2.218428	-49.949157
0.830098	3.240235	-42.338962
0.830703	4.260828	-34.466861
0.831309	5.108284	-26.469500
0.831914	5.999480	-18.357453
0.832520	6.877311	-10.202569
0.833125	7.792807	-1.949808
0.833730	8.600776	6.351212
0.834336	9.353463	14.614546
0.834941	10.053905	22.581270
0.835547	10.826032	30.601135
0.836152	11.395255	38.740836
0.836758	12.004573	46.273490
0.837363	12.578656	53.667599
0.837969	13.023343	60.896593
0.838574	13.446160	67.844702
0.839180	13.812480	74.443331
0.839785	14.122302	80.679738
0.840391	14.330673	86.527624
0.840996	14.529932	91.979938
0.841602	14.616196	97.040749
0.842207	14.638066	101.538163
0.842812	14.647178	105.744661
0.843418	14.540867	109.269009
0.844023	14.409040	112.188478
0.844629	14.217072	115.049927
0.845234	13.930334	117.018562
0.845840	13.588314	118.361171
0.846445	13.185544	119.365416
0.847051	12.663706	119.788913
0.847656	12.208084	119.663924
0.848262	11.607271	118.844857
0.848867	10.988233	117.626152
0.849473	10.191806	115.805822
0.850078	9.569123	113.432398
0.850684	8.844989	110.495848
0.851289	7.964728	107.164269
0.851895	7.113627	103.342497
0.852500	6.165326	98.758323
0.853105	5.309972	94.122093
0.853711	4.316110	88.998110
0.854316	3.424914	83.205805
0.854922	2.452314	77.160812
0.855527	1.502191	70.734889
0.856133	0.465803	63.951895
0.856738	-0.574837	56.856837
0.857344	-1.559587	49.538643
0.857949	-2.551020	41.986739
0.858555	-3.549742	34.208718
0.859160	-4.463415	26.227896
0.859766	-5.312694	18.180106
0.860371	-6.267070	10.129604
0.860977	-7.138826	1.737757
0.861582	-7.972309	-6.534253
0.862187	-8.783316	-14.443228
0.862793	-9.518993	-22.680263
0.863398	-10.182378	-30.789327
0.864004	-10.882820	-38.674985
0.864609	-11.510363	-46.442974
0.865215	-11.970845	-53.960716
0.865820	-12.410672	-61.280266
0.866426	-12.785496	-68.244913
0.867031	-13.205276	-74.886109
0.867637	-13.472574	-81.278142
0.868242	-13.659075	-87.440261
0.868848	-13.734404	-92.690859
0.869453	-13.796976	-97.841683
0.870059	-13.906933	-102.673123
0.870664	-13.809126	-106.613918
0.871270	-13.654823	-110.326698
0.871875	-13.429442	-113.444088
0.872480	-13.173686	-116.005673
0.873086	-12.888771	-118.043987
0.873691	-12.532171	-119.591837
0.874297	-12.062577	-120.507967
0.874902	-11.582048	-120.830334
0.875508	-10.993992	-120.535622
0.876113	-10.439956	-119.798976
0.876719	-9.840966	-118.634768
0.877324	-9.135056	-116.497493
0.877930	-8.479568	-113.968714
0.878535	-7.643047	-111.145494
0.879141	-6.873350	-107.524897
0.879746	-6.008276	-103.428476
0.880352	-5.200915	-98.949769
0.880957	-4.298177	-93.968940
0.881563	-3.388148	-88.523132
0.882168	-2.493915	-82.641627
0.882773	-1.602719	-76.492793
0.883379	-0.624044	-69.908262
0.883984	0.324257	-62.926534
0.884590	1.290175	-55.661480
0.885195	2.233615	-48.379075
0.885801	3.122381	-40.662328
0.886406	4.058532	-32.538352
0.887012	5.015337	-24.622328
0.887617	5.867653	-16.565320
0.888223	6.772214	-8.294936
0.888828	7.698037	0.000662
0.889434	8.402125	8.212482
0.890039	9.100744	16.406409
0.890645	9.921471	24.537976
0.891250	10.554481	32.484908
0.891855	11.267073	40.310376
0.892461	11.751247	47.971814
0.893066	12.333228	55.517481
0.893672	12.825907	62.435767
0.894277	13.280314	69.232859
0.894883	13.606539	76.012329
0.895488	13.905426	82.127814
0.896094	14.162397	87.830106
0.896699	14.323383	93.223587
0.897305	14.420583	98.188691
0.897910	14.489837	102.625373
0.898516	14.489837	106.567253
0.899121	14.392030	110.067471
0.899727	14.247446	113.072073
0.900332	14.030571	115.514905
0.900937	13.848322	117.254712
0.901543	13.455272	118.721495
0.902148	12.991753	119.620002
0.902754	12.575011	119.632745
0.903359	12.134577	119.488507
0.903965	11.527082	118.718513
0.904570	10.889211	117.271250
0.905176	10.267743	115.327016
0.905781	9.583703	112.879032
0.906387	8.779379	109.852469
0.906992	7.968980	106.354149
0.907598	7.060774	102.329576
0.908203	6.234581	97.851683
0.908809	5.226138	92.928874
0.909414	4.362887	87.502587
0.910020	3.411549	81.756916
0.910625	2.412826	75.782686
0.911230	1.491256	68.976647
0.911836	0.511973	62.159762
0.912441	-0.542639	55.237681
0.913047	-1.532250	47.815375
0.913652	-2.482980	40.143906
0.914258	-3.509040	32.331181
0.914863	-4.436078	24.428984
0.915469	-5.376481	16.316666
0.916074	-6.247022	8.100237
0.916680	-7.109058	-0.134629
0.917285	-7.957730	-8.229324
0.917891	-8.783923	-16.569386
0.918496	-9.486796	-24.792594
0.919102	-10.225510	-32.613995
0.919707	-10.902868	-40.580990
0.920312	-11.491531	-48.363621
0.920918	-11.944115	-55.672325
0.921523	-12.422214	-62.997298
0.922129	-12.818909	-69.887386
0.922734	-13.158499	-76.451854
0.923340	-13.419722	-82.684465
0.923945	-13.624448	-88.613146
0.924551	-13.799406	-94.069256
0.925156	-13.879596	-99.059032
0.925762	-13.823099	-103.512524
0.926367	-13.830389	-107.659374
0.926973	-13.620803	-111.317387
0.927578	-13.459209	-113.994471
0.928184	-13.177939	-116.538975
0.928789	-12.865078	-118.654288
0.929395	-12.477496	-119.958669
0.930000	-12.086269	-120.642716
0.930605	-11.526766	-120.824641
0.931211	-11.008572	-120.499291
0.931816	-10.418694	-119.544933
0.932422	-9.890780	-118.045885
0.933027	-9.138093	-115.995912
0.933633	-8.441296	-113.451679
0.934238	-7.644262	-110.272202
0.934844	-6.878210	-106.510891
0.935449	-6.050194	-102.593683
0.936055	-5.160213	-97.756008
0.936660	-4.334019	-92.599761
0.937266	-3.462870	-87.226886
0.937871	-2.513962	-81.296849
0.938477	-1.566269	-74.943045
0.939082	-0.641054	-68.316761
0.939688	0.340052	-61.294906
0.940293	1.277417	-54.005181
0.940898	2.261560	-46.480390
0.941504	3.202570	-38.740868
0.942109	4.159983	-30.891270
0.942715	5.124686	-22.729336
0.943320	5.977610	-14.481727
0.943926	6.877311	-6.504430
0.944531	7.750889	1.896907
0.945137	8.439789	10.326712
0.945742	9.289068	18.447977
0.946348	9.971285	26.417954
0.946953	10.621913	34.439174
0.947559	11.335113	42.336219
0.948164	11.932281	49.917675
0.948770	12.372108	57.168901
0.949375	12.856889	64.254470
0.949980	13.315548	71.074608
0.950586	13.613221	77.413229
0.951191	13.940054	83.393424
0.951797	14.151462	89.261915
0.952402	14.260204	94.361496
0.953008	14.463107	99.175855
0.953613	14.495305	103.687368
0.954219	14.518389	107.460608
0.954824	14.420583	110.833127
0.955430	14.207959	113.689695
0.956035	13.994728	116.016486
0.956641	13.830704	117.715623
0.957246	13.408495	118.944089
0.957852	13.036708	119.675583
0.958457	12.540992	119.788913
0.959063	12.056818	119.327459
0.959668	11.486987	118.235640
0.960273	10.837574	116.908214
0.960879	10.119514	114.808626
0.961484	9.475569	111.948533
0.962090	8.744145	109.002222
0.962695	7.862061	105.440188
0.963301	7.054700	101.336176
0.963906	6.150139	96.708622
0.964512	5.174501	91.696613
0.965117	4.240173	86.242129
0.965723	3.300985	80.373638
0.966328	2.349647	74.109034
0.966934	1.345457	67.507965
0.967539	0.348557	60.597813
0.968145	-0.672036	53.316492
0.968750	-1.686553	45.915334
0.969355	-2.695603	38.407624
0.969961	-3.618389	30.364443
0.970566	-4.572157	22.422391
0.971172	-5.534430	14.368637
0.971777	-6.359409	6.117503
0.972383	-7.237847	-2.100553
0.972988	-8.143016	-10.282550
0.973594	-8.942480	-18.485695
0.974199	-9.606472	-26.656576
0.974805	-10.329392	-34.671289
0.975410	-11.019507	-42.526038
0.976016	-11.566253	-50.032392
0.976621	-12.150664	-57.668616
0.977227	-12.526096	-64.848536
0.977832	-13.015130	-71.422493
0.978437	-13.316448	-78.065858
0.979043	-13.579493	-84.352694
0.979648	-13.742909	-90.027331
0.980254	-13.875951	-95.299077
0.980859	-13.949458	-100.220259
0.981465	-13.926373	-104.640402
0.982070	-13.801836	-108.571709
0.982676	-13.698562	-111.952632
0.983281	-13.563091	-114.833601
0.983887	-13.249623	-117.212990
0.984492	-12.876621	-118.906163
0.985098	-12.569836	-120.206205
0.985703	-12.103886	-120.933633
0.986309	-11.618498	-120.732187
0.986914	-11.083902	-120.239554
0.987520	-10.412619	-119.284382
0.988125	-9.833068	-117.692881
0.988730	-9.054866	-115.414892
0.989336	-8.381761	-112.734555
0.989941	-7.577437	-109.475096
0.990547	-6.770683	-105.655764
0.991152	-5.980332	-101.414291
0.991758	-5.045396	-96.678830
0.992363	-4.169995	-91.580333
0.992969	-3.225340	-85.817851
0.993574	-2.321386	-79.734359
0.994180	-1.352431	-73.609384
0.994785	-0.359176	-66.715229
0.995391	0.629827	-59.393510
0.995996	1.534995	-52.154484
0.996602	2.602365	-44.591194
0.997207	3.530011	-36.830524
0.997812	4.401767	-28.804695
0.998418	5.379227	-20.686413
0.999023	6.313555	-12.524208
0.999629	7.172554	-4.341669
1.000234	7.970803	3.967756
1.000840	8.764192	12.161140
1.001445	9.530244	20.221945
1.002051	10.318165	28.437019
1.002656	10.991878	36.314271
1.003262	11.626103	43.987639
1.003867	12.161914	51.695710
1.004473	12.763335	58.937447
1.005078	13.199517	65.932460
1.005684	13.607146	72.636557
1.006289	13.960101	79.027234
1.006895	14.152070	84.876746
1.007500	14.419368	90.474655
1.008105	14.553624	95.660454
1.008711	14.596149	100.407845
1.009316	14.695778	104.583706
1.009922	14.703676	108.165532
1.010527	14.529932	111.584413
1.011133	14.380488	114.401939
1.011738	14.192772	116.358103
1.012344	13.862294	117.986748
1.012949	13.521489	119.202199
1.013555	12.996613	119.778881
1.014160	12.498467	119.690223
1.014766	12.039200	119.128996
1.015371	11.456612	118.032297
1.015977	10.748272	116.360814
1.016582	10.022315	114.150607
1.017187	9.324303	111.345823
1.017793	8.504791	108.223010
1.018398	7.638503	104.322341
1.019004	6.779504	100.171696
1.019609	5.847606	95.582370
1.020215	4.795424	90.303304
1.020820	3.913948	84.795409
1.021426	2.968685	78.875675
1.022031	1.938980	72.536241
1.022637	0.903200	65.762465
1.023242	-0.119215	58.822219
1.023848	-1.119760	51.628742
1.024453	-2.069883	44.084972
1.025059	-3.143935	36.313729
1.025664	-4.090413	28.383878
1.026270	-5.067873	20.495238
1.026875	-6.024071	12.227295
1.027480	-6.869705	3.839786
1.028086	-7.725666	-4.048041
1.028691	-8.635695	-12.324118
1.029297	-9.380484	-20.621885
1.029902	-10.104619	-28.679436
1.030508	-10.747956	-36.591664
1.031113	-11.445361	-44.359653
1.031719	-12.002435	-52.030038
1.032324	-12.470814	-59.394594
1.032930	-12.971390	-66.461998
1.033535	-13.357150	-73.197817
1.034141	-13.629308	-79.671458
1.034746	-13.833426	-85.747088
1.035352	-13.975580	-91.315715
1.035957	-14.174231	-96.779688
1.036563	-14.150539	-101.324007
1.037168	-14.174839	-105.528878
1.037773	-13.991375	-109.396741
1.038379	-13.908756	-112.679246
1.038984	-13.685805	-115.411097
1.039590	-13.371730	-117.580635
1.040195	-12.980503	-119.279502
1.040801	-12.509086	-120.326856
1.041406	-12.112999	-120.799426
1.042012	-11.568683	-120.728934
1.042617	-10.954505	-120.165808
1.043223	-10.275325	-118.948459
1.043828	-9.626520	-116.966538
1.044434	-8.853785	-114.821401
1.045039	-8.114463	-112.062708
1.045645	-7.300419	-108.395478
1.046250	-6.503993	-104.515143
1.046855	-5.568450	-100.195587
1.047461	-4.678469	-95.289588
1.048066	-3.783020	-90.022180
1.048672	-2.934349	-84.279762
1.049277	-1.898569	-78.155600
1.049883	-0.894987	-71.680333
1.050488	0.058781	-64.775061
1.051094	1.007689	-57.711453
1.051699	2.076881	-50.378618
1.052305	3.003919	-42.549355
1.052910	3.914555	-34.807393
1.053516	4.950943	-26.861003
1.054121	5.921720	-18.616377
1.054727	6.815954	-10.428686
1.055332	7.709580	-2.245605
1.055937	8.520586	6.076021
1.056543	9.310938	14.319021
1.057148	10.120729	22.430796
1.057754	10.824209	30.423006
1.058359	11.485164	38.325744
1.058965	12.068967	46.122473
1.059570	12.640013	53.574603
1.060176	13.175824	60.562025
1.060781	13.642988	67.615601
1.061387	13.933371	74.414863
1.061992	14.299084	80.430032
1.062598	14.577316	86.290390
1.063203	14.746200	91.827837
1.063809	14.867699	96.893800
1.064414	14.958824	101.454657
1.065020	14.974011	105.505800
1.065625	14.929664	109.146461
1.066230	14.729798	112.231316
1.066836	14.513529	114.804830
1.067441	14.277214	116.823895
1.068047	13.909679	118.425970
1.068652	13.486862	119.196506
1.069258	13.134515	119.627323
1.069863	12.546459	119.742279
1.070469	11.915271	118.852449
1.071074	11.292588	117.568674
1.071680	10.569061	115.826699
1.072285	9.818804	113.474964
1.072891	9.021163	110.582879
1.073496	8.201044	107.240184
1.074102	7.330502	103.404314
1.074707	6.352435	99.009385
1.075312	5.492221	94.141886
1.075918	4.486209	88.819710
1.076523	3.446176	83.306122
1.077129	2.393994	77.195787
1.077734	1.440833	70.543204
1.078340	0.447578	63.992835
1.078945	-0.646521	56.993755
1.079551	-1.693843	49.646279
1.080156	-2.713828	42.068077
1.080762	-3.692504	34.302256
1.081367	-4.723423	26.338515
1.081973	-5.690556	18.265239
1.082578	-6.587220	10.111168
1.083184	-7.538558	1.879284
1.083789	-8.383584	-6.304340
1.084395	-9.268097	-14.611596
1.085000	-10.020177	-22.743706
1.085605	-10.812351	-30.712599
1.086211	-11.444146	-38.823561
1.086816	-12.030380	-46.511569
1.087422	-12.537031	-53.894291
1.088027	-13.027280	-61.191608
1.088633	-13.522996	-68.312694
1.089238	-13.843146	-74.913764
1.089844	-14.083714	-81.167523
1.090449	-14.227691	-87.180794
1.091055	-14.436669	-92.835910
1.091660	-14.510784	-97.833007
1.092266	-14.496811	-102.452427
1.092871	-14.429379	-106.686851
1.093477	-14.214326	-110.420236
1.094082	-14.039367	-113.304459
1.094688	-13.752022	-116.027363
1.095293	-13.354720	-118.164095
1.095898	-12.990830	-119.580992
1.096504	-12.532778	-120.515287
1.097109	-11.993322	-120.809458
1.097715	-11.410734	-120.618586
1.098320	-10.799594	-119.866215
1.098926	-10.132564	-118.509237
1.099531	-9.358007	-116.547651
1.100137	-8.641162	-114.139522
1.100742	-7.755434	-111.128413
1.101348	-6.957792	-107.587526
1.101953	-6.025894	-103.683604
1.102559	-5.222177	-98.992607
1.103164	-4.227707	-93.978158
1.103770	-3.200432	-88.687163
1.104375	-2.233907	-82.816231
1.104980	-1.292896	-76.543494
1.105586	-0.227349	-69.934290
1.106191	0.775018	-62.989435
1.106797	1.700842	-55.791078
1.107402	2.705639	-48.309667
1.108008	3.702539	-40.637927
1.108613	4.756544	-32.780195
1.109219	5.638627	-24.655947
1.109824	6.524356	-16.477746
1.110430	7.538873	-8.516445
1.111035	8.361422	-0.093961
1.111641	9.163316	8.266978
1.112246	9.933621	16.329138
1.112852	10.693598	24.449861
1.113457	11.398292	32.466743
1.114062	11.998498	40.278926
1.114668	12.667958	47.936025
1.115273	13.126010	55.339895
1.115879	13.635091	62.475893
1.116484	14.056693	69.301996
1.117090	14.381703	75.771028
1.117695	14.639889	81.989812
1.118301	14.836110	87.781032
1.118906	15.089435	92.983641
1.119512	15.045696	97.991854
1.120117	15.060275	102.678784
1.120723	15.095510	106.510317
1.121328	14.966721	109.962003
1.121934	14.664796	112.916176
1.122539	14.488622	115.433839
1.123145	14.208567	117.291856
1.123750	13.764487	118.638260
1.124355	13.357465	119.509112
1.124961	12.799785	119.751769
1.125566	12.266404	119.404458
1.126172	11.690498	118.464740
1.126777	11.009495	117.252814
1.127383	10.186339	115.160546
1.127988	9.484074	112.605468
1.128594	8.639655	109.758931
1.129199	7.784302	106.249224
1.129805	6.809879	102.297312
1.130410	5.922328	97.769803
1.131016	4.936363	92.816358
1.131621	3.997175	87.488760
1.132227	2.920693	81.716518
1.132832	1.926222	75.568227
1.133438	0.923855	69.088079
1.134043	-0.144730	62.177385
1.134648	-1.170182	54.946222
1.135254	-2.229047	47.754101
1.135859	-3.196787	40.164511
1.136465	-4.274484	32.049753
1.137070	-5.202130	24.354696
1.137676	-6.236695	16.245090
1.138281	-7.096301	8.036523
1.138887	-7.946795	-0.147372
1.139492	-8.835561	-8.368953
1.140098	-9.624697	-16.536038
1.140703	-10.401684	-24.723729
1.141309	-11.022544	-32.782635
1.141914	-11.684715	-40.551167
1.142520	-12.331090	-48.177900
1.143125	-12.820731	-55.934232
1.143730	-13.173686	-62.988079
1.144336	-13.637205	-69.792221
1.144941	-13.888708	-76.571420
1.145547	-14.153576	-82.848224
1.146152	-14.341900	-88.622635
1.146758	-14.456109	-94.032112
1.147363	-14.491344	-99.037342
1.147969	-14.435454	-103.544517
1.148574	-14.341292	-107.627653
1.149180	-14.134744	-111.120822
1.149785	-13.916653	-114.151723
1.150391	-13.565521	-116.572323
1.150996	-13.199808	-118.467755
1.151602	-12.773954	-120.046513
1.152207	-12.254545	-120.690163
1.152813	-11.736959	-120.671726
1.153418	-11.181708	-120.501460
1.154023	-10.467901	-119.594820
1.154629	-9.798441	-118.029889
1.155234	-9.093746	-115.963648
1.155840	-8.329517	-113.374409
1.156445	-7.443181	-110.236956
1.157051	-6.617594	-106.536376
1.157656	-5.731866	-102.396847
1.158262	-4.775061	-97.785560
1.158867	-3.835873	-92.767587
1.159473	-2.881497	-87.114098
1.160078	-1.947776	-81.257265
1.160684	-0.904099	-75.102467
1.161289	0.036911	-68.181199
1.161895	0.971239	-61.222245
1.162500	2.082349	-53.979153
1.163105	3.048267	-46.450295
1.163711	3.957687	-38.739512
1.164316	4.979495	-30.811288
1.164922	5.954525	-22.689210
1.165527	6.820206	-14.566047
1.166133	7.805564	-6.336875
1.166738	8.624468	1.928086
1.167344	9.400240	10.095714
1.167949	10.244658	18.370706
1.168555	10.928698	26.500647
1.169160	11.559886	34.169676
1.169766	12.276731	42.227227
1.170371	12.759082	49.905745
1.170977	13.321623	57.185440
1.171582	13.774207	64.146020
1.172187	14.156930	70.959652
1.172793	14.429695	77.422176
1.173398	14.794800	83.447106
1.174004	14.986161	89.096800
1.174609	15.107660	94.385898
1.175215	15.097940	99.259361
1.175820	15.119202	103.415701
1.176426	15.097940	107.308236
1.177031	14.959431	110.800592
1.177637	14.672693	113.391458
1.178242	14.481940	115.847304
1.178848	14.135060	117.724028
1.179453	13.716495	118.886881
1.180059	13.270594	119.604277
1.180664	12.722633	119.685885
1.181270	12.285843	119.258051
1.181875	11.544699	118.248112
1.182480	10.910474	116.797867
1.183086	10.140777	114.747894
1.183691	9.293320	112.093585
1.184297	8.512081	108.853917
1.184902	7.596586	105.254468
1.185508	6.648893	101.383894
1.186113	5.656245	96.503923
1.186719	4.707337	91.408679
1.187324	3.690997	86.143982
1.187930	2.671619	80.314262
1.188535	1.675327	73.953680
1.189141	0.629827	67.362371
1.189746	-0.391373	60.518645
1.190352	-1.466033	53.330048
1.190957	-2.569852	45.859754
1.191563	-3.514507	38.150869
1.192168	-4.522342	30.412432
1.192773	-5.518028	22.394466
1.193379	-6.377026	14.098325
1.193984	-7.320467	6.113436
1.194590	-8.253580	-2.194905
1.195195	-8.971640	-10.478573
1.195801	-9.837321	-18.573539
1.196406	-10.493416	-26.663896
1.197012	-11.197503	-34.726869
1.197617	-11.900983	-42.558844
1.198223	-12.465346	-50.164701
1.198828	-12.925220	-57.610595
1.199434	-13.334065	-64.820610
1.200039	-13.740479	-71.633970
1.200645	-14.027825	-78.084566
1.201250	-14.228298	-84.277050
1.201855	-14.334610	-90.234199
1.202461	-14.494381	-95.388819
1.203066	-14.477371	-100.058940
1.203672	-14.490129	-104.662635
1.204277	-14.301805	-108.626747
1.204883	-14.082499	-111.951547
1.205488	-13.841324	-114.806489
1.206094	-13.523603	-117.198892
1.206699	-13.105647	-119.010004
1.207305	-12.617220	-120.157132
1.207910	-12.196833	-120.786141
1.208516	-11.655555	-120.925770
1.209121	-10.992170	-120.440457
1.209727	-10.389534	-119.240189
1.210332	-9.652035	-117.751715
1.210937	-8.881123	-115.606306
1.211543	-8.096846	-112.666503
1.212148	-7.260325	-109.432529
1.212754	-6.488198	-105.642479
1.213359	-5.567235	-101.354915
1.213965	-4.686366	-96.654700
1.214570	-3.655446	-91.482186
1.215176	-2.732053	-85.831950
1.215781	-1.788613	-79.758218
1.216387	-0.806900	-73.398991
1.216992	0.143223	-66.704112
1.217598	1.218490	-59.654332
1.218203	2.186838	-52.174005
1.218809	3.144251	-44.563539
1.219414	4.120496	-37.015431
1.220020	5.040852	-28.881424
1.220625	5.906533	-20.634086
1.221230	6.808056	-12.607172
1.221836	7.778834	-4.426531
1.222441	8.586196	3.893197
1.223047	9.365612	12.182017
1.223652	10.084887	20.222216
1.224258	10.872809	28.275428
1.224863	11.492454	36.229138
1.225469	12.060463	44.051082
1.226074	12.713520	51.444919
1.226680	13.232929	58.756606
1.227285	13.593781	65.883929
1.227891	13.989261	72.399052
1.228496	14.327636	78.715169
1.229102	14.577924	84.807067
1.229707	14.732835	90.415821
1.230312	14.961254	95.607585
1.230918	14.935131	100.301022
1.231523	14.955786	104.480678
1.232129	14.878634	108.221926
1.232734	14.766248	111.504702
1.233340	14.565774	114.217574
1.233945	14.316093	116.429137
1.234551	13.974681	117.967769
1.235156	13.541537	118.969846
1.235762	13.082270	119.830395
1.236367	12.566506	119.685614
1.236973	12.039200	118.931617
1.237578	11.338150	117.981868
1.238184	10.690560	116.386842
1.238789	9.988295	114.180159
1.239395	9.223459	111.382425
