LabVIEW Measurement	
Writer_Version	2
Reader_Version	2
Separator	Tab
Decimal_Separator	.
Multi_Headings	No
X_Columns	One
Time_Pref	Absolute
Operator	AlunosGDS-JT
Date	2019/10/09
Time	15:19:08.4651639249999940857
***End_of_Header***	
	
Channels	2		
Samples	2048	2048	
Date	2019/10/09	2019/10/09	
Time	15:36:26.1350662687499866649	15:36:26.1350662687499866649	
Y_Unit_Label	g	Newtons	
X_Dimension	Time	Time	
X0	0.0000000000000000E+0	0.0000000000000000E+0	
Delta_X	0.000605	0.000605	
***End_of_Header***			
X_Value	Acceleration (Trigger)	Force (Trigger)	Comment
0.000000	0.162055	1.047745
0.000605	0.205795	1.305584
0.001211	0.196075	1.612226
0.001816	0.174205	1.956283
0.002422	0.214908	2.321217
0.003027	0.237992	2.449459
0.003633	0.231917	2.850452
0.004238	0.259862	3.303772
0.004844	0.263507	3.382398
0.005449	0.310284	3.736216
0.006055	0.343089	4.153748
0.006660	0.340659	4.475030
0.007266	0.405054	4.803904
0.007871	0.426316	5.082621
0.008477	0.445756	5.385467
0.009082	0.534450	5.754196
0.009687	0.525945	6.050264
0.010293	0.578797	6.369920
0.010898	0.623752	6.707741
0.011504	0.637724	6.946873
0.012109	0.636509	7.146692
0.012715	0.643192	7.734490
0.013320	0.689969	8.043301
0.013926	0.731886	8.180761
0.014531	0.753149	8.561691
0.015137	0.809646	8.904121
0.015742	0.874648	9.195309
0.016348	0.854600	9.473483
0.016953	0.902592	9.833536
0.017559	0.906237	10.129333
0.018164	0.954230	10.445464
0.018770	0.973062	10.666160
0.019375	1.033811	10.972530
0.019980	1.024092	11.462995
0.020586	1.011942	11.469231
0.021191	1.056896	11.778584
0.021797	1.095776	12.310259
0.022402	1.087271	12.545595
0.023008	1.094561	12.827293
0.023613	1.126758	13.130682
0.024219	1.107926	13.464436
0.024824	1.084234	13.749659
0.025430	1.123113	14.059283
0.026035	1.163208	14.342880
0.026641	1.189330	14.660367
0.027246	1.110356	14.882689
0.027852	1.123721	15.120736
0.028457	1.140731	15.571345
0.029062	1.072691	15.843825
0.029668	1.061149	15.900219
0.030273	1.068439	16.448704
0.030879	1.098206	16.829634
0.031484	1.090309	17.048161
0.032090	1.010727	17.309253
0.032695	0.983389	17.607490
0.033301	1.054466	17.921724
0.033906	0.953622	18.155975
0.034512	0.935397	18.451772
0.035117	0.925677	18.741604
0.035723	0.883760	19.085933
0.036328	0.834553	19.306357
0.036934	0.815721	19.463067
0.037539	0.794458	20.020228
0.038145	0.778056	20.184529
0.038750	0.678427	20.333106
0.039355	0.669922	20.740606
0.039961	0.606135	21.030167
0.040566	0.569077	21.306985
0.041172	0.550853	21.573772
0.041777	0.603097	21.877431
0.042383	0.529590	22.189224
0.042988	0.501038	22.469025
0.043594	0.481598	22.701379
0.044199	0.465196	23.034048
0.044805	0.406876	23.378648
0.045410	0.380146	23.485471
0.046016	0.358884	23.770965
0.046621	0.330939	24.322703
0.047227	0.289022	24.465044
0.047832	0.264722	24.725323
0.048438	0.239207	25.065585
0.049043	0.237992	25.348097
0.049648	0.265937	25.620577
0.050254	0.155980	25.885465
0.050859	0.227057	26.200783
0.051465	0.178458	26.495767
0.052070	0.129858	26.827352
0.052676	0.118923	26.988400
0.053281	0.151728	27.367161
0.053887	0.152943	27.709591
0.054492	0.135326	27.787675
0.055098	0.106166	28.141764
0.055703	0.174205	28.559567
0.056309	0.160233	28.840994
0.056914	0.196075	29.081753
0.057520	0.186963	29.401951
0.058125	0.221590	29.673347
0.058730	0.224627	29.949622
0.059336	0.299957	30.271718
0.059941	0.348557	30.553417
0.060547	0.387436	30.890696
0.061152	0.329117	31.049304
0.061758	0.406876	31.277319
0.062363	0.398979	31.850748
0.062969	0.403231	31.992004
0.063574	0.453046	32.215681
0.064180	0.499823	32.619115
0.064785	0.548423	32.915454
0.065391	0.510150	33.151875
0.065996	0.597022	33.458788
0.066602	0.612817	33.730726
0.067207	0.643192	34.023540
0.067812	0.704549	34.310390
0.068418	0.736139	34.535694
0.069023	0.748289	34.832305
0.069629	0.781701	35.229502
0.070234	0.822403	35.297825
0.070840	0.842450	35.641611
0.071445	0.909882	36.122586
0.072051	0.915957	36.347620
0.072656	0.941472	36.578889
0.073262	0.974277	36.825612
0.073867	1.014372	37.156384
0.074473	1.002829	37.380333
0.075078	1.058719	37.654440
0.075684	1.084234	37.914177
0.076289	1.092739	38.183675
0.076895	1.107926	38.426332
0.077500	1.091524	38.650823
0.078105	1.073906	39.017925
0.078711	1.141338	39.286610
0.079316	1.142553	39.369574
0.079922	1.095776	39.826148
0.080527	1.120076	40.208433
0.081133	1.118253	40.312545
0.081738	1.121898	40.573096
0.082344	1.135871	40.905495
0.082949	1.106711	41.180415
0.083555	1.139516	41.389452
0.084160	1.077551	41.620721
0.084766	1.079374	41.873409
0.085371	1.018624	42.200114
0.085977	1.018624	42.375532
0.086582	0.991287	42.521939
0.087188	0.971847	43.017826
0.087793	0.967594	43.120311
0.088398	0.930537	43.200293
0.089004	0.931145	43.628941
0.089609	0.877078	43.926636
0.090215	0.848525	44.116423
0.090820	0.867358	44.310548
0.091426	0.836983	44.586824
0.092031	0.781093	44.849272
0.092637	0.737354	45.064545
0.093242	0.749504	45.292290
0.093848	0.731886	45.569108
0.094453	0.705764	45.859482
0.095059	0.643799	45.960070
0.095664	0.660809	46.288130
0.096270	0.640762	46.719218
0.096875	0.629827	46.769648
0.097480	0.584265	47.005255
0.098086	0.577582	47.320844
0.098691	0.603097	47.527170
0.099297	0.526553	47.784738
0.099902	0.456083	48.032817
0.100508	0.539310	48.315600
0.101113	0.479168	48.470683
0.101719	0.488888	48.694632
0.102324	0.447578	48.902042
0.102930	0.400801	49.264265
0.103535	0.433606	49.427482
0.104141	0.449401	49.470862
0.104746	0.395334	49.984914
0.105352	0.355239	50.249802
0.105957	0.385006	50.359066
0.106563	0.388651	50.661098
0.107168	0.409306	50.907551
0.107773	0.355847	51.154816
0.108379	0.325472	51.340265
0.108984	0.357669	51.591327
0.109590	0.374679	51.844557
0.110195	0.364351	52.100227
0.110801	0.415989	52.245550
0.111406	0.416596	52.478988
0.112012	0.390474	52.868052
0.112617	0.372856	52.878084
0.113223	0.409914	53.140804
0.113828	0.405661	53.597920
0.114434	0.425708	53.791231
0.115039	0.382576	53.955262
0.115645	0.454868	54.195478
0.116250	0.463373	54.445184
0.116855	0.487673	54.648256
0.117461	0.501038	54.878712
0.118066	0.505290	55.101847
0.118672	0.528375	55.361043
0.119277	0.541740	55.562488
0.119883	0.530198	55.681241
0.120488	0.586087	56.081692
0.121094	0.582442	56.321095
0.121699	0.566040	56.350105
0.122305	0.585480	56.663525
0.122910	0.598845	56.956339
0.123516	0.660202	57.129317
0.124121	0.632257	57.329136
0.124727	0.700904	57.571521
0.125332	0.688754	57.827191
0.125938	0.730671	58.028095
0.126543	0.697259	58.181822
0.127148	0.763476	58.384352
0.127754	0.780486	58.742237
0.128359	0.745251	58.700755
0.128965	0.871610	59.010921
0.129570	0.813898	59.427369
0.130176	0.833945	59.500301
0.130781	0.873433	59.636135
0.131387	0.875863	59.879333
0.131992	0.883760	60.120092
0.132598	0.903200	60.323978
0.133203	0.942687	60.522170
0.133809	0.940865	60.693791
0.134414	0.929322	60.924790
0.135020	0.908060	61.101020
0.135625	0.943295	61.308431
0.136230	0.970632	61.579284
0.136836	0.961520	61.762022
0.137441	0.955445	61.719998
0.138047	0.998577	62.083847
0.138652	0.956660	62.374221
0.139258	0.917780	62.466675
0.139863	0.909882	62.667578
0.140469	0.930537	62.846791
0.141074	0.919602	63.058811
0.141680	0.941472	63.259985
0.142285	0.903200	63.437301
0.142891	0.949977	63.617870
0.143496	0.932967	63.777562
0.144102	0.941472	63.913124
0.144707	0.949977	63.955691
0.145313	0.935397	64.404402
0.145918	0.818758	64.473268
0.146523	0.866750	64.503363
0.147129	0.860675	64.873719
0.147734	0.869180	65.069471
0.148340	0.868573	65.276068
0.148945	0.821796	65.397260
0.149551	0.756794	65.574033
0.150156	0.789598	65.747282
0.150762	0.778056	65.881218
0.151367	0.812683	66.060431
0.151973	0.775018	66.178099
0.152578	0.761654	66.472269
0.153184	0.753756	66.536254
0.153789	0.720951	66.579905
0.154395	0.731279	67.012891
0.155000	0.654734	67.081215
0.155605	0.649874	67.153876
0.156211	0.678427	67.349628
0.156816	0.692399	67.555683
0.157422	0.694829	67.687449
0.158027	0.592162	67.801593
0.158633	0.623752	67.980806
0.159238	0.628612	68.182523
0.159844	0.589125	68.343300
0.160449	0.584265	68.459883
0.161055	0.631649	68.569960
0.161660	0.567862	68.852200
0.162266	0.588517	68.842169
0.162871	0.573330	69.022195
0.163477	0.549030	69.373844
0.164082	0.580620	69.458435
0.164687	0.601882	69.573663
0.165293	0.602490	69.742031
0.165898	0.612210	69.891421
0.166504	0.628612	70.046775
0.167109	0.579405	70.168239
0.167715	0.585480	70.322509
0.168320	0.593985	70.439364
0.168926	0.564825	70.645147
0.169531	0.570900	70.658432
0.170137	0.602490	70.901631
0.170742	0.622537	71.142932
0.171348	0.570292	71.063492
0.171953	0.606742	71.248941
0.172559	0.585480	71.549347
0.173164	0.612210	71.662678
0.173770	0.555105	71.757029
0.174375	0.559965	71.910756
0.174980	0.568470	72.056893
0.175586	0.552068	72.155040
0.176191	0.584265	72.285451
0.176797	0.577582	72.418031
0.177402	0.640762	72.620561
0.178008	0.597022	72.661500
0.178613	0.610387	72.681021
0.179219	0.607957	73.099095
0.179824	0.606742	73.080659
0.180430	0.609780	73.146271
0.181035	0.627397	73.322773
0.181641	0.648659	73.429867
0.182246	0.660809	73.587662
0.182852	0.685717	73.700179
0.183457	0.660809	73.810255
0.184062	0.694829	73.953951
0.184668	0.607957	74.093851
0.185273	0.620107	74.141298
0.185879	0.690577	74.249477
0.186484	0.660809	74.492676
0.187090	0.639547	74.422183
0.187695	0.654127	74.532802
0.188301	0.689362	74.868997
0.188906	0.682679	74.916443
0.189512	0.671744	74.977175
0.190117	0.685717	75.091590
0.190723	0.677819	75.229050
0.191328	0.668707	75.311201
0.191934	0.674782	75.387116
0.192539	0.720344	75.548977
0.193145	0.714269	75.630314
0.193750	0.684502	75.705416
0.194355	0.704549	75.689148
0.194961	0.748896	75.918520
0.195566	0.747074	76.077128
0.196172	0.741606	75.910928
0.196777	0.739176	76.211334
0.197383	0.737354	76.393530
0.197988	0.763476	76.448297
0.198594	0.747681	76.534786
0.199199	0.801141	76.602838
0.199805	0.786561	76.747347
0.200410	0.788383	76.815671
0.201016	0.813291	76.882096
0.201621	0.819366	76.970483
0.202227	0.774411	77.132887
0.202832	0.785346	77.125837
0.203437	0.832123	77.071884
0.204043	0.820581	77.400215
0.204648	0.836375	77.453627
0.205254	0.804786	77.397504
0.205859	0.860675	77.578615
0.206465	0.836375	77.677576
0.207070	0.793243	77.766505
0.207676	0.841843	77.788466
0.208281	0.844880	77.852993
0.208887	0.860068	77.958461
0.209492	0.863713	78.024073
0.210098	0.823011	78.036274
0.210703	0.877078	78.150146
0.211309	0.866143	78.291673
0.211914	0.837590	78.217927
0.212520	0.861283	78.238804
0.213125	0.843665	78.588554
0.213730	0.846703	78.532974
0.214336	0.826656	78.523756
0.214941	0.898340	78.621360
0.215547	0.879508	78.682906
0.216152	0.883153	78.753127
0.216758	0.860068	78.783493
0.217363	0.821188	78.851816
0.217969	0.819973	78.904686
0.218574	0.801748	78.952946
0.219180	0.816936	78.922851
0.219785	0.841843	79.047839
0.220391	0.785953	79.195602
0.220996	0.765906	78.982498
0.221602	0.795673	79.074681
0.222207	0.747681	79.333605
0.222812	0.740391	79.322760
0.223418	0.710624	79.333876
0.224023	0.739784	79.396777
0.224629	0.685717	79.446392
0.225234	0.665062	79.459949
0.225840	0.652912	79.485434
0.226445	0.626182	79.539117
0.227051	0.683894	79.629673
0.227656	0.641977	79.612592
0.228262	0.645622	79.471065
0.228867	0.644407	79.711281
0.229473	0.574545	79.776622
0.230078	0.628004	79.626961
0.230684	0.520478	79.735682
0.231289	0.569685	79.806988
0.231895	0.603705	79.869076
0.232500	0.651697	79.891308
0.233105	0.586695	79.905677
0.233711	0.573330	79.953124
0.234316	0.563002	79.933061
0.234922	0.566040	79.955835
0.235527	0.547208	79.939297
0.236133	0.614640	80.073232
0.236738	0.553890	79.991082
0.237344	0.626182	79.884801
0.237949	0.590947	80.140200
0.238555	0.588517	80.111732
0.239160	0.573330	80.064556
0.239766	0.557535	80.101972
0.240371	0.593985	80.127728
0.240977	0.573937	80.161890
0.241582	0.592162	80.151316
0.242187	0.607957	80.136947
0.242793	0.634687	80.189816
0.243398	0.614640	80.243227
0.244004	0.666277	80.126373
0.244609	0.688147	80.159721
0.245215	0.639547	80.319142
0.245820	0.669314	80.129355
0.246426	0.654734	80.182496
0.247031	0.678427	80.318600
0.247637	0.682072	80.266815
0.248242	0.676604	80.254072
0.248848	0.686932	80.212590
0.249453	0.773803	80.325378
0.250059	0.750111	80.299892
0.250664	0.782308	80.295554
0.251270	0.770158	80.267900
0.251875	0.752541	80.325107
0.252480	0.745859	80.268984
0.253086	0.801748	80.100616
0.253691	0.790206	80.289319
0.254297	0.808431	80.300977
0.254902	0.833945	80.054525
0.255508	0.821796	80.142369
0.256113	0.788383	80.229671
0.256719	0.792028	80.186291
0.257324	0.840628	80.201203
0.257930	0.875863	80.133422
0.258535	0.839413	80.149961
0.259141	0.848525	80.133422
0.259746	0.870395	80.118510
0.260352	0.821796	80.051000
0.260957	0.835160	80.109563
0.261562	0.799318	79.886156
0.262168	0.844880	79.853079
0.262773	0.833338	80.114172
0.263379	0.778663	79.939568
0.263984	0.801748	79.879107
0.264590	0.836375	79.916793
0.265195	0.846095	79.863111
0.265801	0.804786	79.776080
0.266406	0.839413	79.756830
0.267012	0.790206	79.713721
0.267617	0.818151	79.693387
0.268223	0.822403	79.645940
0.268828	0.821188	79.594155
0.269434	0.832123	79.598764
0.270039	0.820581	79.555113
0.270645	0.795673	79.301070
0.271250	0.780486	79.408435
0.271855	0.842450	79.511733
0.272461	0.841235	79.383220
0.273066	0.802356	79.302425
0.273672	0.809038	79.254978
0.274277	0.774411	79.265281
0.274883	0.737961	79.120230
0.275488	0.793243	79.102064
0.276094	0.778663	79.071969
0.276699	0.778663	79.006899
0.277305	0.782308	78.857239
0.277910	0.757401	78.750416
0.278516	0.790813	78.851816
0.279121	0.770766	78.747976
0.279727	0.759831	78.551410
0.280332	0.706371	78.652269
0.280938	0.744036	78.648744
0.281543	0.726419	78.522942
0.282148	0.766513	78.421813
0.282754	0.741606	78.421270
0.283359	0.755579	78.326377
0.283965	0.723381	78.254529
0.284570	0.739784	78.145808
0.285176	0.700904	78.155026
0.285781	0.740999	78.114900
0.286387	0.739176	77.866550
0.286992	0.737961	77.882275
0.287598	0.728849	77.967950
0.288203	0.720951	77.697910
0.288809	0.725811	77.529000
0.289414	0.720951	77.581055
0.290020	0.668099	77.539845
0.290625	0.658379	77.388286
0.291230	0.691184	77.271160
0.291836	0.679034	77.247572
0.292441	0.732494	77.165421
0.293047	0.692399	77.085711
0.293652	0.714269	76.952046
0.294258	0.710624	76.975905
0.294863	0.631042	76.827329
0.295469	0.717306	76.526923
0.296074	0.741606	76.737858
0.296680	0.645622	76.643507
0.297285	0.675389	76.445586
0.297891	0.718521	76.367502
0.298496	0.696651	76.292400
0.299102	0.669314	76.205912
0.299707	0.669314	76.133521
0.300312	0.704549	76.010702
0.300918	0.736746	75.878664
0.301523	0.720951	75.817661
0.302129	0.686324	75.656071
0.302734	0.648052	75.541114
0.303340	0.749504	75.566329
0.303945	0.740391	75.292764
0.304551	0.792028	75.162082
0.305156	0.809038	75.248029
0.305762	0.761654	75.148255
0.306367	0.761046	74.959823
0.306973	0.778056	74.908852
0.307578	0.798711	74.817483
0.308184	0.750719	74.651826
0.308789	0.843665	74.523313
0.309395	0.857030	74.435197
0.310000	0.835768	74.341659
0.310605	0.835160	74.232396
0.311211	0.816936	73.934701
0.311816	0.833945	73.937413
0.312422	0.789598	73.979166
0.313027	0.779271	73.580613
0.313633	0.822403	73.504427
0.314238	0.806001	73.538317
0.314844	0.894695	73.413600
0.315449	0.853385	73.219746
0.316055	0.824226	73.105060
0.316660	0.818758	72.965973
0.317266	0.842450	72.858337
0.317871	0.827871	72.698102
0.318477	0.855815	72.555220
0.319082	0.843058	72.483643
0.319688	0.844273	72.347809
0.320293	0.895910	72.009175
0.320898	0.847310	72.074787
0.321504	0.823618	72.017037
0.322109	0.878293	71.745371
0.322715	0.810253	71.621738
0.323320	0.852170	71.516541
0.323926	0.815113	71.418123
0.324531	0.792028	71.216135
0.325137	0.840020	71.100907
0.325742	0.776233	70.937148
0.326348	0.804178	70.838730
0.326953	0.765298	70.604207
0.327559	0.775018	70.460511
0.328164	0.778663	70.449937
0.328770	0.750719	70.137602
0.329375	0.754364	69.919076
0.329980	0.720344	70.025899
0.330586	0.737354	69.836654
0.331191	0.692399	69.637919
0.331797	0.702726	69.470907
0.332402	0.745859	69.326126
0.333008	0.733101	69.182972
0.333613	0.714269	69.020026
0.334219	0.728241	68.845965
0.334824	0.737354	68.757849
0.335430	0.726419	68.587854
0.336035	0.727634	68.296124
0.336641	0.733709	68.180625
0.337246	0.750111	68.189572
0.337852	0.723381	67.758213
0.338457	0.770766	67.599605
0.339062	0.773803	67.626446
0.339668	0.761654	67.401684
0.340273	0.708194	67.271544
0.340879	0.745251	67.077690
0.341484	0.799926	66.933181
0.342090	0.742214	66.761017
0.342695	0.823011	66.610814
0.343301	0.798103	66.451392
0.343906	0.774411	66.258894
0.344512	0.756186	66.069649
0.345117	0.779271	65.754331
0.345723	0.805393	65.743215
0.346328	0.739176	65.689804
0.346934	0.751934	65.335715
0.347539	0.821796	65.133998
0.348145	0.782916	65.073809
0.348750	0.799318	64.929299
0.349355	0.762868	64.719449
0.349961	0.796888	64.548640
0.350566	0.809646	64.311135
0.351172	0.804178	64.193467
0.351777	0.792028	63.953793
0.352383	0.836375	63.739605
0.352988	0.804178	63.688904
0.353594	0.862498	63.377924
0.354199	0.832123	63.074807
0.354805	0.871003	63.102191
0.355410	0.901377	62.905083
0.356016	0.883153	62.688455
0.356621	0.847310	62.504903
0.357227	0.872218	62.321352
0.357832	0.905630	62.145121
0.358438	0.859460	61.938795
0.359043	0.835160	61.722438
0.359648	0.827871	61.546478
0.360254	0.880723	61.388413
0.360859	0.818758	61.070926
0.361465	0.870395	60.853755
0.362070	0.831515	60.851586
0.362676	0.801748	60.409111
0.363281	0.838805	60.182722
0.363887	0.762261	60.159676
0.364492	0.815113	59.925967
0.365098	0.807823	59.697138
0.365703	0.869180	59.520093
0.366309	0.780486	59.318648
0.366914	0.790813	59.077076
0.367520	0.829693	58.881866
0.368125	0.751326	58.622400
0.368730	0.751934	58.504461
0.369336	0.753149	58.272920
0.369941	0.771373	57.878163
0.370547	0.770766	57.863522
0.371152	0.780486	57.686749
0.371758	0.772588	57.265150
0.372363	0.774411	57.199809
0.372969	0.778056	56.981012
0.373574	0.816328	56.761672
0.374180	0.803571	56.543959
0.374785	0.768336	56.286120
0.375391	0.798711	56.085216
0.375996	0.725811	55.861810
0.376602	0.765298	55.618069
0.377207	0.762261	55.377581
0.377812	0.731886	55.277807
0.378418	0.741606	54.924532
0.379023	0.726419	54.629820
0.379629	0.745251	54.694618
0.380234	0.665062	54.442473
0.380840	0.715484	54.119292
0.381445	0.770158	53.933572
0.382051	0.722166	53.719383
0.382656	0.696651	53.494621
0.383262	0.710624	53.259014
0.383867	0.747681	53.012290
0.384473	0.727634	52.793764
0.385078	0.696651	52.511523
0.385684	0.638332	52.182378
0.386289	0.698474	52.031091
0.386895	0.693007	51.938095
0.387500	0.773196	51.476912
0.388105	0.715484	51.279262
0.388711	0.742214	51.208228
0.389316	0.759831	50.990515
0.389922	0.754364	50.682246
0.390527	0.793851	50.426304
0.391133	0.772588	50.242753
0.391738	0.793243	49.970273
0.392344	0.778663	49.759880
0.392949	0.839413	49.508006
0.393555	0.835768	49.348313
0.394160	0.822403	49.112164
0.394766	0.891658	48.722287
0.395371	0.859460	48.588893
0.395977	0.872825	48.464989
0.396582	0.851563	48.035257
0.397187	0.816328	47.867702
0.397793	0.857030	47.635619
0.398398	0.816328	47.382660
0.399004	0.852778	47.110180
0.399609	0.852170	46.885960
0.400215	0.886190	46.599381
0.400820	0.806001	46.369468
0.401426	0.882545	46.070417
0.402031	0.872218	45.825321
0.402637	0.895303	45.645836
0.403242	0.901377	45.337839
0.403848	0.889835	44.902955
0.404453	0.920210	44.886416
0.405059	0.914135	44.671686
0.405664	0.949370	44.306481
0.406270	1.002829	44.095817
0.406875	0.971847	43.880815
0.407480	0.971847	43.647377
0.408086	0.984604	43.351038
0.408691	1.004652	43.077202
0.409297	0.988249	42.848373
0.409902	0.974884	42.609512
0.410508	0.951192	42.269251
0.411113	0.974277	41.991077
0.411719	0.933575	41.922212
0.412324	0.934790	41.461300
0.412930	0.923855	41.156827
0.413535	0.928107	41.124563
0.414141	0.922640	40.802467
0.414746	0.889228	40.476304
0.415352	0.847310	40.207078
0.415957	0.847310	39.966590
0.416563	0.889835	39.699804
0.417168	0.833945	39.434102
0.417773	0.837590	39.125833
0.418379	0.825441	38.890226
0.418984	0.818151	38.614763
0.419590	0.796281	38.225700
0.420195	0.793851	38.049469
0.420801	0.816328	37.918244
0.421406	0.825441	37.432931
0.422012	0.745859	37.207356
0.422617	0.764083	37.045765
0.423223	0.756186	36.728007
0.423828	0.770158	36.457696
0.424434	0.752541	36.162442
0.425039	0.775626	35.953133
0.425645	0.728849	35.600672
0.426250	0.745251	35.352864
0.426855	0.739784	35.076317
0.427461	0.737961	34.872973
0.428066	0.744036	34.484994
0.428672	0.702726	34.076952
0.429277	0.698474	34.047399
0.429883	0.660202	33.792271
0.430488	0.710624	33.349796
0.431094	0.675389	33.109037
0.431699	0.670529	32.897018
0.432305	0.722774	32.646770
0.432910	0.691792	32.328469
0.433516	0.708194	32.047042
0.434121	0.686932	31.790558
0.434727	0.661417	31.538141
0.435332	0.640762	31.169412
0.435937	0.650482	30.901541
0.436543	0.649874	30.744289
0.437148	0.672352	30.309676
0.437754	0.705156	29.945827
0.438359	0.679642	29.898651
0.438965	0.700904	29.602583
0.439570	0.714269	29.263135
0.440176	0.710624	28.966525
0.440781	0.756794	28.668830
0.441387	0.759831	28.441357
0.441992	0.762261	28.111940
0.442598	0.795066	27.878773
0.443203	0.819366	27.597346
0.443809	0.809038	27.289348
0.444414	0.812076	26.910316
0.445020	0.826656	26.775025
0.445625	0.781701	26.538604
0.446230	0.781701	26.016419
0.446836	0.819973	25.917187
0.447441	0.809646	25.644978
0.448047	0.845488	25.337252
0.448652	0.829693	25.045522
0.449258	0.914135	24.755418
0.449863	0.883153	24.494054
0.450469	0.876470	24.185514
0.451074	0.850955	23.847151
0.451680	0.878900	23.599614
0.452285	0.905630	23.379732
0.452891	0.864928	22.963556
0.453496	0.923855	22.600791
0.454102	0.927500	22.557140
0.454707	0.915957	22.180006
0.455313	0.955445	21.766541
0.455918	0.942687	21.551268
0.456523	0.945725	21.271468
0.457129	0.945117	21.007392
0.457734	0.992502	20.680145
0.458340	0.954837	20.370250
0.458945	0.998577	20.096143
0.459551	1.093346	19.842912
0.460156	1.048391	19.474725
0.460762	1.044746	19.207125
0.461367	1.068439	18.999173
0.461973	1.053859	18.509251
0.462578	1.008904	18.246531
0.463184	0.982174	18.203964
0.463789	1.011334	17.792669
0.464395	1.031382	17.445087
0.465000	1.042924	17.163388
0.465605	1.079374	16.909345
0.466211	0.999184	16.608396
0.466816	1.060541	16.282505
0.467422	1.006474	15.965289
0.468027	0.991287	15.697689
0.468633	1.024699	15.331129
0.469238	1.029559	14.959688
0.469844	0.999792	14.769630
0.470449	0.988857	14.482238
0.471055	0.971239	13.983911
0.471660	0.977922	13.776229
0.472266	0.990679	13.628738
0.472871	0.962127	13.268955
0.473477	0.973062	12.926525
0.474082	0.892873	12.558609
0.474687	0.951192	12.329238
0.475293	0.894088	11.979487
0.475898	0.949370	11.698331
0.476504	0.934182	11.391960
0.477109	0.972454	11.115142
0.477715	0.904415	10.741803
0.478320	0.897125	10.336472
0.478926	0.899555	10.257033
0.479531	0.860675	9.977232
0.480137	0.853385	9.526894
0.480742	0.824226	9.282069
0.481348	0.816936	9.022060
0.481953	0.858853	8.727619
0.482559	0.782308	8.387900
0.483164	0.784738	8.132230
0.483770	0.744036	7.805253
0.484375	0.707586	7.434897
0.484980	0.717914	7.118766
0.485586	0.655949	6.773624
0.486191	0.660809	6.589802
0.486797	0.679642	6.171457
0.487402	0.637724	5.719221
0.488008	0.660809	5.686686
0.488613	0.628612	5.353474
0.489219	0.634687	4.961970
0.489824	0.624360	4.672951
0.490430	0.593377	4.404267
0.491035	0.570292	4.071597
0.491641	0.574545	3.783392
0.492246	0.535665	3.461567
0.492852	0.555713	3.218639
0.493457	0.581227	2.908744
0.494063	0.621930	2.501515
0.494668	0.600667	2.240693
0.495273	0.570900	2.100522
0.495879	0.546600	1.578336
0.496484	0.583657	1.345982
0.497090	0.605527	1.199304
0.497695	0.529590	0.848739
0.498301	0.561787	0.498447
0.498906	0.566647	0.193160
0.499512	0.617070	-0.036211
0.500117	0.643799	-0.352071
0.500723	0.568470	-0.680403
0.501328	0.614640	-0.977013
0.501934	0.553283	-1.272539
0.502539	0.641977	-1.580808
0.503145	0.615855	-2.017318
0.503750	0.685717	-2.129564
0.504355	0.647444	-2.430241
0.504961	0.668099	-2.917994
0.505566	0.694829	-3.088531
0.506172	0.741606	-3.362909
0.506777	0.785953	-3.640541
0.507383	0.785346	-3.971855
0.507988	0.794458	-4.290426
0.508594	0.841235	-4.562907
0.509199	0.885583	-4.856263
0.509805	0.940865	-5.164803
0.510410	0.955445	-5.484459
0.511016	1.028344	-5.695665
0.511621	0.954230	-6.134345
0.512227	0.989464	-6.546725
0.512832	1.068439	-6.517444
0.513437	1.038064	-6.880479
0.514043	1.128581	-7.295842
0.514648	1.107926	-7.569678
0.515254	1.126151	-7.821010
0.515859	1.149236	-8.096473
0.516465	1.108533	-8.416129
0.517070	1.154703	-8.718704
0.517676	1.179003	-9.013958
0.518281	1.203303	-9.293759
0.518887	1.202088	-9.713189
0.519492	1.171713	-9.943373
0.520098	1.259800	-10.154579
0.520703	1.212415	-10.691406
0.521309	1.213630	-10.915897
0.521914	1.242790	-10.971749
0.522520	1.223350	-11.463569
0.523125	1.261015	-11.712190
0.523730	1.219705	-12.013681
0.524336	1.226388	-12.353942
0.524941	1.239752	-12.649739
0.525547	1.245827	-12.979968
0.526152	1.248865	-13.251093
0.526758	1.222743	-13.550415
0.527363	1.206948	-13.860852
0.527969	1.188723	-14.308208
0.528574	1.183255	-14.449464
0.529180	1.210593	-14.724113
0.529785	1.201480	-15.249552
0.530391	1.207555	-15.398942
0.530996	1.115823	-15.714531
0.531602	1.186293	-15.980233
0.532207	1.093954	-16.319681
0.532813	1.092739	-16.588636
0.533418	1.058719	-16.880366
0.534023	1.023484	-17.200836
0.534629	1.076944	-17.538114
0.535234	1.058719	-17.803003
0.535840	0.970024	-18.054065
0.536445	0.901985	-18.458853
0.537051	0.929322	-18.816196
0.537656	0.905022	-18.910818
0.538262	0.871003	-19.316149
0.538867	0.838198	-19.774079
0.539473	0.766513	-19.923197
0.540078	0.771373	-20.194322
0.540684	0.756186	-20.545157
0.541289	0.722166	-20.863728
0.541895	0.702726	-21.140004
0.542500	0.730671	-21.419534
0.543105	0.710016	-21.753559
0.543711	0.641977	-22.070233
0.544316	0.654734	-22.317227
0.544922	0.649874	-22.537651
0.545527	0.655342	-23.085052
0.546133	0.587302	-23.242575
0.546738	0.598237	-23.382747
0.547344	0.595807	-23.719754
0.547949	0.559965	-24.095262
0.548555	0.541133	-24.393228
0.549160	0.576975	-24.609314
0.549766	0.525945	-24.918667
0.550371	0.533843	-25.217718
0.550977	0.553283	-25.500500
0.551582	0.500430	-25.768371
0.552187	0.488281	-26.057933
0.552793	0.474308	-26.496612
0.553398	0.511365	-26.623227
0.554004	0.441503	-26.925531
0.554609	0.457298	-27.449615
0.555215	0.468233	-27.560776
0.555820	0.462158	-27.739718
0.556426	0.447578	-28.019519
0.557031	0.465196	-28.322094
0.557637	0.474308	-28.617619
0.558242	0.509543	-28.839670
0.558848	0.539310	-29.153090
0.559453	0.520478	-29.488743
0.560059	0.572722	-29.727603
0.560664	0.617677	-29.968904
0.561270	0.567255	-30.444457
0.561875	0.615855	-30.690367
0.562480	0.626790	-30.761672
0.563086	0.655342	-31.108170
0.563691	0.710624	-31.419963
0.564297	0.736139	-31.625475
0.564902	0.779271	-31.871927
0.565508	0.816328	-32.139256
0.566113	0.855815	-32.420141
0.566719	0.895910	-32.661171
0.567324	0.924462	-32.946665
0.567930	0.963342	-33.291536
0.568535	0.934790	-33.482136
0.569141	1.010119	-33.735638
0.569746	1.033204	-33.978294
0.570352	1.053251	-34.453304
0.570957	1.075121	-34.618148
0.571562	1.104888	-34.684302
0.572168	1.126758	-35.085567
0.572773	1.151666	-35.391395
0.573379	1.159563	-35.646795
0.573984	1.204518	-35.902465
0.574590	1.191153	-36.194737
0.575195	1.237930	-36.507073
0.575801	1.261622	-36.740240
0.576406	1.287137	-37.005129
0.577012	1.302932	-37.263782
0.577617	1.322979	-37.662063
0.578223	1.357607	-37.780816
0.578828	1.307792	-38.099659
0.579434	1.332699	-38.538067
0.580039	1.400739	-38.563824
0.580645	1.395271	-38.773945
0.581250	1.420786	-39.125323
0.581855	1.416534	-39.406208
0.582461	1.439011	-39.638561
0.583066	1.434759	-39.891250
0.583672	1.456628	-40.192198
0.584277	1.386159	-40.479048
0.584883	1.394664	-40.747461
0.585488	1.327839	-40.900375
0.586094	1.352139	-41.304080
0.586699	1.315082	-41.597708
0.587305	1.353962	-41.637563
0.587910	1.281062	-42.132365
0.588516	1.267090	-42.428704
0.589121	1.192975	-42.559115
0.589727	1.151058	-42.843796
0.590332	1.113393	-43.166163
0.590938	1.105496	-43.423731
0.591543	1.093954	-43.699194
0.592148	1.056289	-43.970590
0.592754	1.004044	-44.252288
0.593359	1.023484	-44.493047
0.593965	1.016194	-44.661686
0.594570	0.996147	-45.030416
0.595176	0.936612	-45.466655
0.595781	0.922640	-45.481567
0.596387	0.842450	-45.682470
0.596992	0.823011	-46.133621
0.597598	0.754971	-46.365975
0.598203	0.829693	-46.478763
0.598809	0.773196	-46.781338
0.599414	0.674174	-47.079846
0.600020	0.714876	-47.314911
0.600625	0.663847	-47.552416
0.601230	0.584872	-47.853364
0.601836	0.584265	-48.112017
0.602441	0.585480	-48.363079
0.603047	0.528375	-48.511926
0.603652	0.502860	-48.868726
0.604258	0.499823	-49.192991
0.604863	0.518048	-49.181332
0.605469	0.477346	-49.491499
0.606074	0.456691	-49.806546
0.606680	0.457906	-50.005822
0.607285	0.436643	-50.198050
0.607891	0.479776	-50.479206
0.608496	0.467018	-50.737316
0.609102	0.454868	-50.926832
0.609707	0.465196	-51.118517
0.610313	0.451223	-51.405909
0.610918	0.498608	-51.697639
0.611523	0.468233	-51.881733
0.612129	0.512580	-51.983676
0.612734	0.481598	-52.469260
0.613340	0.535058	-52.593435
0.613945	0.546600	-52.712188
0.614551	0.573330	-52.916344
0.615156	0.648052	-53.157916
0.615762	0.577582	-53.403826
0.616367	0.723381	-53.566230
0.616973	0.737354	-53.812140
0.617578	0.698474	-54.077300
0.618184	0.768943	-54.258140
0.618789	0.760439	-54.417561
0.619395	0.776233	-54.683805
0.620000	0.844880	-55.058499
0.620605	0.889228	-55.046028
0.621211	0.934182	-55.234730
0.621816	0.948155	-55.631114
0.622422	0.984604	-55.700794
0.623027	0.977922	-55.927183
0.623633	0.983997	-56.163603
0.624238	1.067831	-56.346612
0.624844	1.081804	-56.545075
0.625449	1.113393	-56.782038
0.626055	1.161386	-56.978332
0.626660	1.199658	-57.226683
0.627266	1.237930	-57.376072
0.627871	1.218490	-57.529258
0.628477	1.243397	-57.884160
0.629082	1.257977	-58.162604
0.629687	1.295035	-58.082352
0.630293	1.288352	-58.366219
0.630898	1.370972	-58.635446
0.631504	1.351532	-58.878644
0.632109	1.359429	-59.015562
0.632715	1.430506	-59.246832
0.633320	1.412281	-59.445295
0.633926	1.460881	-59.662737
0.634531	1.406206	-59.856591
0.635137	1.377046	-60.104399
0.635742	1.387981	-60.385555
0.636348	1.437189	-60.488582
0.636953	1.355784	-60.585373
0.637559	1.391019	-61.038152
0.638164	1.404991	-61.141992
0.638770	1.364897	-61.204622
0.639375	1.359429	-61.473849
0.639980	1.323587	-61.679632
0.640586	1.255547	-61.907648
0.641191	1.294427	-62.067340
0.641797	1.263445	-62.319215
0.642402	1.244005	-62.479179
0.643008	1.268305	-62.674117
0.643613	1.217275	-62.843841
0.644219	1.172320	-63.105205
0.644824	1.160778	-63.450889
0.645430	1.191760	-63.355453
0.646035	1.152273	-63.601092
0.646641	1.058719	-63.989342
0.647246	1.047784	-64.064715
0.647852	1.034419	-64.180214
0.648457	0.988249	-64.414737
0.649062	0.941472	-64.633534
0.649668	0.927500	-64.792142
0.650273	0.925070	-64.978134
0.650879	0.893480	-65.182019
0.651484	0.861890	-65.389701
0.652090	0.793851	-65.602262
0.652695	0.796888	-65.647540
0.653301	0.762868	-65.981023
0.653906	0.751934	-66.228289
0.654512	0.738569	-66.106825
0.655117	0.750719	-66.376865
0.655723	0.668099	-66.668324
0.656328	0.628612	-66.753186
0.656934	0.626790	-66.893900
0.657539	0.645014	-67.075011
0.658145	0.621322	-67.295164
0.658750	0.593985	-67.421508
0.659355	0.588517	-67.554088
0.659961	0.587910	-67.758787
0.660566	0.554498	-68.017169
0.661172	0.511365	-68.070309
0.661777	0.495570	-68.182826
0.662383	0.505898	-68.605238
0.662988	0.514403	-68.659192
0.663594	0.520478	-68.631808
0.664199	0.484636	-68.888021
0.664805	0.518655	-69.054491
0.665410	0.549638	-69.184089
0.666016	0.518048	-69.313144
0.666621	0.557535	-69.454129
0.667227	0.554498	-69.631173
0.667832	0.569077	-69.762397
0.668438	0.592770	-69.874101
0.669043	0.584265	-70.025659
0.669648	0.587302	-70.324168
0.670254	0.657772	-70.266147
0.670859	0.620107	-70.381375
0.671465	0.648659	-70.801618
0.672070	0.697259	-70.806769
0.672676	0.702726	-70.794297
0.673281	0.728241	-70.981645
0.673887	0.744036	-71.097686
0.674492	0.736746	-71.281508
0.675098	0.773803	-71.338173
0.675703	0.850955	-71.484581
0.676309	0.863713	-71.641019
0.676914	0.868573	-71.829722
0.677520	0.899555	-71.866866
0.678125	0.893480	-72.093526
0.678730	0.938435	-72.291718
0.679336	0.934182	-72.214719
0.679941	1.018017	-72.299039
0.680547	1.038064	-72.553082
0.681152	1.092131	-72.599174
0.681758	1.141946	-72.726602
0.682363	1.155918	-72.855657
0.682969	1.188115	-72.978477
0.683574	1.200873	-73.124613
0.684180	1.239145	-73.228454
0.684785	1.217883	-73.363745
0.685391	1.225780	-73.564648
0.685996	1.279240	-73.595556
0.686602	1.312044	-73.634327
0.687207	1.353962	-73.980282
0.687813	1.358822	-74.005497
0.688418	1.330877	-73.913857
0.689023	1.333307	-74.114218
0.689629	1.381906	-74.303734
0.690234	1.360037	-74.382360
0.690840	1.389804	-74.507348
0.691445	1.384944	-74.627999
0.692051	1.419571	-74.735093
0.692656	1.399524	-74.818870
0.693262	1.437189	-74.959855
0.693867	1.430506	-75.089453
0.694473	1.425039	-75.313130
0.695078	1.402561	-75.248332
0.695684	1.440226	-75.225015
0.696289	1.330877	-75.648783
0.696895	1.338774	-75.636040
0.697500	1.323587	-75.677251
0.698105	1.329662	-75.795461
0.698711	1.319942	-75.947562
0.699316	1.310222	-75.970608
0.699922	1.282277	-76.088818
0.700527	1.225780	-76.214891
0.701133	1.257370	-76.325781
0.701738	1.174750	-76.454294
0.702344	1.173535	-76.507976
0.702949	1.113393	-76.715116
0.703555	1.138908	-76.874266
0.704160	1.063579	-76.700475
0.704766	1.067831	-76.858269
0.705371	1.011334	-77.080863
0.705977	0.996754	-77.089267
0.706582	0.982782	-77.138341
0.707187	0.970024	-77.245435
0.707793	0.922032	-77.336804
0.708398	0.844880	-77.418955
0.709004	0.827263	-77.511408
0.709609	0.807216	-77.590577
0.710215	0.792636	-77.765723
0.710820	0.796888	-77.709600
0.711426	0.707586	-77.795547
0.712031	0.748289	-78.009464
0.712637	0.701511	-77.940870
0.713242	0.577582	-77.938158
0.713848	0.616462	-78.062333
0.714453	0.603705	-78.198980
0.715059	0.566647	-78.237480
0.715664	0.580012	-78.245343
0.716270	0.537488	-78.377380
0.716875	0.525945	-78.451126
0.717480	0.531413	-78.485288
0.718086	0.485851	-78.612716
0.718691	0.525945	-78.690529
0.719297	0.505898	-78.786236
0.719902	0.528983	-78.710321
0.720508	0.518655	-78.734451
0.721113	0.520478	-79.023741
0.721719	0.525945	-78.939964
0.722324	0.555713	-78.895499
0.722930	0.526553	-78.944844
0.723535	0.541133	-79.045431
0.724141	0.524730	-79.060614
0.724746	0.503468	-79.076068
0.725352	0.566647	-79.147916
0.725957	0.551460	-79.201599
0.726562	0.561787	-79.237116
0.727168	0.648052	-79.215697
0.727773	0.679642	-79.446695
0.728379	0.692399	-79.464861
0.728984	0.615855	-79.317098
0.729590	0.677819	-79.394368
0.730195	0.699081	-79.564635
0.730801	0.755579	-79.494142
0.731406	0.753149	-79.489533
0.732012	0.781093	-79.460794
0.732617	0.871003	-79.531557
0.733223	0.856423	-79.574124
0.733828	0.909882	-79.533998
0.734434	0.917172	-79.614250
0.735039	0.920817	-79.649768
0.735645	0.985819	-79.714024
0.736250	0.960305	-79.595543
0.736855	1.005259	-79.841453
0.737461	1.055074	-79.798615
0.738066	1.105496	-79.607201
0.738672	1.144983	-79.709957
0.739277	1.098814	-79.785059
0.739883	1.121898	-79.756049
0.740488	1.145591	-79.748186
0.741094	1.147413	-79.824372
0.741699	1.196013	-79.809460
0.742305	1.177180	-79.864498
0.742910	1.211200	-79.822203
0.743516	1.306577	-79.836573
0.744121	1.251295	-79.959934
0.744727	1.256155	-79.831692
0.745332	1.312652	-79.820034
0.745938	1.288352	-80.033951
0.746543	1.275595	-79.869107
0.747148	1.305362	-79.806749
0.747754	1.285922	-79.852569
0.748359	1.332699	-79.895678
0.748965	1.291390	-79.879139
0.749570	1.353354	-79.849858
0.750176	1.332092	-79.913843
0.750781	1.323587	-79.936075
0.751387	1.307792	-79.909776
0.751992	1.307792	-79.868294
0.752598	1.267090	-79.950987
0.753203	1.313259	-80.042627
0.753809	1.270735	-79.813527
0.754414	1.276810	-79.916283
0.755020	1.309614	-80.032053
0.755625	1.299895	-79.945022
0.756230	1.278025	-79.846604
0.756836	1.265267	-79.805935
0.757441	1.219098	-79.870192
0.758047	1.223350	-79.838470
0.758652	1.210593	-79.808918
0.759258	1.196013	-79.794548
0.759863	1.166246	-79.832235
0.760469	1.185078	-79.700468
0.761074	1.149236	-79.693419
0.761680	1.117646	-79.862329
0.762285	1.070261	-79.761742
0.762891	1.061149	-79.563821
0.763496	1.030774	-79.703450
0.764102	1.007689	-79.765538
0.764707	1.011942	-79.655190
0.765312	1.031382	-79.595543
0.765918	0.995539	-79.594729
0.766523	0.952407	-79.567075
0.767129	0.951192	-79.521526
0.767734	0.946940	-79.528846
0.768340	0.862498	-79.492515
0.768945	0.880723	-79.478146
0.769551	0.855208	-79.414703
0.770156	0.833945	-79.377016
0.770762	0.807216	-79.560297
0.771367	0.822403	-79.347735
0.771973	0.806001	-79.173131
0.772578	0.768336	-79.203768
0.773184	0.709409	-79.200514
0.773789	0.710016	-79.151712
0.774395	0.721559	-79.110501
0.775000	0.728241	-79.072544
0.775605	0.727634	-79.031875
0.776211	0.692399	-78.978463
0.776816	0.648659	-78.915020
0.777422	0.671137	-78.902548
0.778027	0.671744	-78.965992
0.778633	0.624967	-78.664501
0.779238	0.621930	-78.727131
0.779844	0.601275	-78.810366
0.780449	0.662632	-78.584790
0.781055	0.617070	-78.481492
0.781660	0.662024	-78.444348
0.782266	0.628004	-78.364637
0.782871	0.629219	-78.298212
0.783477	0.617677	-78.207385
0.784082	0.625575	-78.220670
0.784687	0.603705	-78.127674
0.785293	0.608565	-78.057724
0.785898	0.633472	-77.906708
0.786504	0.634687	-78.006482
0.787109	0.686932	-77.912944
0.787715	0.624967	-77.632330
0.788320	0.660809	-77.701196
0.788926	0.703334	-77.603048
0.789531	0.710016	-77.486194
0.790137	0.776841	-77.396994
0.790742	0.747074	-77.363374
0.791348	0.777448	-77.267396
0.791953	0.759831	-77.171689
0.792559	0.758009	-77.112855
0.793164	0.791421	-76.999525
0.793770	0.839413	-76.941776
0.794375	0.876470	-76.783439
0.794980	0.828478	-76.691799
0.795586	0.914135	-76.768798
0.796191	0.861890	-76.516381
0.796797	0.896518	-76.254746
0.797402	0.946940	-76.250679
0.798008	0.948762	-76.241190
0.798613	0.970632	-76.099121
0.799219	1.001614	-75.999889
0.799824	1.000399	-75.937801
0.800430	1.047784	-75.840197
0.801035	1.042316	-75.726324
0.801641	1.057504	-75.598082
0.802246	1.057504	-75.549280
0.802852	1.120076	-75.556871
0.803457	1.118253	-75.261888
0.804063	1.177180	-75.151811
0.804668	1.171105	-75.261346
0.805273	1.197228	-74.984799
0.805879	1.219705	-74.789589
0.806484	1.223350	-74.745125
0.807090	1.269520	-74.655382
0.807695	1.242790	-74.521718
0.808301	1.253725	-74.404592
0.808906	1.280455	-74.295329
0.809512	1.275595	-74.151091
0.810117	1.326017	-74.097137
0.810723	1.350317	-73.928497
0.811328	1.254940	-73.962659
0.811934	1.288960	-73.836857
0.812539	1.305969	-73.503645
0.813145	1.282885	-73.503103
0.813750	1.293820	-73.469483
0.814355	1.302932	-73.268580
0.814961	1.349709	-73.140881
0.815566	1.322979	-73.066050
0.816172	1.293820	-72.921812
0.816777	1.299895	-72.795197
0.817383	1.358214	-72.653127
0.817988	1.275595	-72.537628
0.818594	1.277417	-72.451411
0.819199	1.295642	-72.277891
0.819805	1.305969	-72.063703
0.820410	1.232463	-72.247525
0.821016	1.225173	-71.953084
0.821621	1.255547	-71.696058
0.822227	1.265875	-71.715850
0.822832	1.191760	-71.600893
0.823438	1.175965	-71.468855
0.824043	1.147413	-71.248431
0.824648	1.133441	-71.196375
0.825254	1.144983	-71.062711
0.825859	1.080589	-70.971613
0.826465	1.072691	-70.770981
0.827070	1.011942	-70.625116
0.827676	0.994324	-70.614271
0.828281	1.010727	-70.301122
0.828887	0.934790	-70.217887
0.829492	0.907452	-70.236865
0.830098	0.912920	-69.910703
0.830703	0.874648	-69.771073
0.831309	0.871610	-69.618159
0.831914	0.834553	-69.489375
0.832520	0.853993	-69.309619
0.833125	0.735531	-69.135015
0.833730	0.744644	-69.012467
0.834336	0.702726	-68.864975
0.834941	0.703334	-68.755441
0.835547	0.681464	-68.503024
0.836152	0.638332	-68.521460
0.836758	0.681464	-68.354990
0.837363	0.586087	-68.017982
0.837969	0.623145	-68.054855
0.838574	0.586087	-67.903839
0.839180	0.571507	-67.627563
0.839785	0.590340	-67.469497
0.840391	0.528983	-67.369994
0.840996	0.527160	-67.168820
0.841602	0.528375	-67.004518
0.842207	0.549030	-66.776774
0.842812	0.583657	-66.619522
0.843418	0.514403	-66.482061
0.844023	0.576367	-66.279803
0.844629	0.583657	-66.075375
0.845234	0.584265	-66.087575
0.845840	0.564825	-65.747856
0.846445	0.541740	-65.406510
0.847051	0.592162	-65.403799
0.847656	0.610387	-65.249529
0.848262	0.663847	-64.974880
0.848867	0.643192	-64.829015
0.849473	0.691184	-64.614284
0.850078	0.649874	-64.467877
0.850684	0.673567	-64.252333
0.851289	0.688147	-64.071764
0.851895	0.709409	-63.913427
0.852500	0.754364	-63.786812
0.853105	0.784738	-63.369823
0.853711	0.806608	-63.309904
0.854316	0.827263	-63.318580
0.854922	0.898947	-62.849264
0.855527	0.926285	-62.624501
0.856133	0.980352	-62.448270
0.856738	1.010727	-62.262821
0.857344	0.954837	-62.066256
0.857949	1.001007	-61.855321
0.858555	1.080589	-61.673667
0.859160	1.084841	-61.458666
0.859766	1.154703	-61.255322
0.860371	1.150451	-60.981486
0.860977	1.187508	-60.925364
0.861582	1.191760	-60.765129
0.862187	1.211808	-60.375252
0.862793	1.197835	-60.289034
0.863398	1.217275	-60.172993
0.864004	1.254940	-59.866080
0.864609	1.273772	-59.613663
0.865215	1.291997	-59.463189
0.865820	1.323587	-59.226768
0.866426	1.327232	-59.018816
0.867031	1.344242	-58.816828
0.867637	1.350924	-58.649002
0.868242	1.334522	-58.475753
0.868848	1.380084	-58.187277
0.869453	1.406206	-57.913441
0.870059	1.361252	-57.964412
0.870664	1.373401	-57.643130
0.871270	1.354569	-57.236172
0.871875	1.354569	-57.217193
0.872480	1.374009	-57.045300
0.873086	1.373401	-56.755739
0.873691	1.341812	-56.519047
0.874297	1.391019	-56.344985
0.874902	1.332699	-56.128628
0.875508	1.295035	-55.927454
0.876113	1.342419	-55.668259
0.876719	1.276810	-55.527816
0.877324	1.301717	-55.377884
0.877930	1.261622	-55.020271
0.878535	1.223350	-54.859494
0.879141	1.254332	-54.812318
0.879746	1.209378	-54.346526
0.880352	1.200873	-54.135591
0.880957	1.122506	-53.989998
0.881563	1.104888	-53.772827
0.882168	1.123721	-53.483537
0.882773	1.063579	-53.305679
0.883379	1.078159	-53.050009
0.883984	1.052036	-52.877302
0.884590	1.001007	-52.613498
0.885195	0.948155	-52.391718
0.885801	0.976707	-52.312550
0.886406	0.882545	-52.044137
0.887012	0.917780	-51.591088
0.887617	0.816936	-51.637179
0.888223	0.814506	-51.416483
0.888828	0.835768	-51.000036
0.889434	0.770158	-50.840886
0.890039	0.763476	-50.570032
0.890645	0.711231	-50.363707
0.891250	0.720951	-50.098276
0.891855	0.711231	-49.890052
0.892461	0.660202	-49.623537
0.893066	0.676604	-49.439714
0.893672	0.620107	-49.133615
0.894277	0.632257	-48.842698
0.894883	0.620107	-48.800945
0.895488	0.549030	-48.491863
0.896094	0.549638	-48.008990
0.896699	0.523515	-47.951783
0.897305	0.593377	-47.724580
0.897910	0.522300	-47.445322
0.898516	0.595807	-47.171215
0.899121	0.535058	-46.898464
0.899727	0.488281	-46.703796
0.900332	0.508935	-46.426436
0.900937	0.498000	-46.181068
0.901543	0.501645	-45.912655
0.902148	0.520478	-45.704973
0.902754	0.555105	-45.406194
0.903359	0.559358	-45.036923
0.903965	0.578190	-45.051563
0.904570	0.620715	-44.710217
0.905176	0.660202	-44.195081
0.905781	0.694222	-44.061416
0.906387	0.702726	-43.801408
0.906992	0.736139	-43.537604
0.907598	0.759224	-43.300912
0.908203	0.777448	-43.034939
0.908809	0.751934	-42.783877
0.909414	0.840628	-42.500281
0.910020	0.867965	-42.244882
0.910625	0.895910	-41.970504
0.911230	0.941472	-41.859885
0.911836	0.968202	-41.405209
0.912441	0.996147	-41.131373
0.913047	0.999184	-41.090433
0.913652	1.047176	-40.712215
0.914258	1.068439	-40.382256
0.914863	1.115216	-40.069921
0.915469	1.150451	-39.881218
0.916074	1.170498	-39.533636
0.916680	1.207555	-39.240822
0.917285	1.229425	-38.997081
0.917891	1.242790	-38.776114
0.918496	1.282885	-38.542405
0.919102	1.258585	-38.130838
0.919707	1.300502	-37.940508
0.920312	1.361859	-37.818502
0.920918	1.358214	-37.252937
0.921523	1.369757	-37.065047
0.922129	1.383121	-36.877429
0.922734	1.408636	-36.574312
0.923340	1.358214	-36.305627
0.923945	1.425646	-36.001697
0.924551	1.402561	-35.760938
0.925156	1.417141	-35.476528
0.925762	1.454806	-35.210013
0.926367	1.427469	-34.915029
0.926973	1.397701	-34.737172
0.927578	1.423824	-34.396639
0.928184	1.380084	-34.079424
0.928789	1.399524	-33.991308
0.929395	1.360037	-33.642642
0.930000	1.363682	-33.171156
0.930605	1.343027	-33.021224
0.931211	1.351532	-32.779381
0.931816	1.361859	-32.455388
0.932422	1.282277	-32.147390
0.933027	1.264660	-31.916663
0.933633	1.169283	-31.684580
0.934238	1.159563	-31.408304
0.934844	1.103673	-31.097596
0.935449	1.066009	-30.880154
0.936055	1.084234	-30.707719
0.936660	1.086056	-30.306997
0.937266	1.013157	-29.985443
0.937871	0.997969	-29.936912
0.938477	0.970632	-29.608851
0.939082	0.934790	-29.176136
0.939688	0.902592	-28.977131
0.940293	0.894695	-28.682689
0.940898	0.915957	-28.403973
0.941504	0.853385	-28.121462
0.942109	0.850348	-27.796654
0.942715	0.818758	-27.556167
0.943320	0.837590	-27.303479
0.943926	0.784738	-26.902757
0.944531	0.785346	-26.720290
0.945137	0.758616	-26.542161
0.945742	0.730671	-26.059559
0.946348	0.740999	-25.754002
0.946953	0.769551	-25.599461
0.947559	0.708801	-25.290921
0.948164	0.712446	-24.955269
0.948770	0.711231	-24.651338
0.949375	0.713054	-24.372893
0.949980	0.746466	-24.078723
0.950586	0.679642	-23.777504
0.951191	0.673567	-23.509091
0.951797	0.702726	-23.277279
0.952402	0.684502	-22.958979
0.953008	0.688147	-22.524908
0.953613	0.663847	-22.430286
0.954219	0.719736	-22.148045
0.954824	0.730671	-21.643211
0.955430	0.744644	-21.406791
0.956035	0.720344	-21.125906
0.956641	0.756794	-20.782391
0.957246	0.744036	-20.511537
0.957852	0.755579	-20.208962
0.958457	0.798103	-19.910454
0.959063	0.749504	-19.579954
0.959668	0.813898	-19.268160
0.960273	0.835160	-19.004356
0.960879	0.848525	-18.821076
0.961484	0.826048	-18.417914
0.962090	0.915350	-18.009600
0.962695	0.887405	-17.970016
0.963301	0.895910	-17.598033
0.963906	0.923247	-17.133868
0.964512	0.949977	-16.892296
0.965117	0.932967	-16.604633
0.965723	1.007689	-16.224516
0.966328	0.968809	-15.940649
0.966934	0.965772	-15.637531
0.967539	1.043531	-15.359900
0.968145	0.992502	-15.092842
0.968750	0.987642	-14.744447
0.969355	1.022269	-14.407982
0.969961	1.042924	-14.301430
0.970566	1.070261	-13.801747
0.971172	1.081196	-13.395331
0.971777	0.996147	-13.315350
0.972383	1.055074	-12.975630
0.972988	1.034419	-12.612866
0.973594	1.047176	-12.295921
0.974199	1.060541	-12.039437
0.974805	1.109141	-11.733338
0.975410	1.103066	-11.421816
0.976016	1.100636	-11.089146
0.976621	1.114001	-10.846218
0.977227	1.167461	-10.569671
0.977832	1.115823	-10.122045
0.978437	1.166853	-9.894571
0.979043	1.171105	-9.740843
0.979648	1.144376	-9.202119
0.980254	1.140731	-8.885988
0.980859	1.208163	-8.626521
0.981465	1.217883	-8.339401
0.982070	1.233678	-8.001579
0.982676	1.206948	-7.695751
0.983281	1.243397	-7.413239
0.983887	1.225173	-7.094397
0.984492	1.145591	-6.865025
0.985098	1.127366	-6.535880
0.985703	1.199050	-6.305153
0.986309	1.188723	-6.071986
0.986914	1.135263	-5.535702
0.987520	1.175965	-5.372213
0.988125	1.107318	-5.200863
0.988730	1.147413	-4.734257
0.989336	1.121291	-4.402130
0.989941	1.121898	-4.135885
0.990547	1.082411	-3.830328
0.991152	1.092131	-3.544563
0.991758	1.104888	-3.222467
0.992363	1.091524	-2.928568
0.992969	1.090916	-2.590476
0.993574	1.078766	-2.325858
0.994180	1.101243	-1.960924
0.994785	1.035026	-1.886636
0.995391	1.143161	-1.374211
0.995996	1.103066	-0.939327
0.996602	1.060541	-0.830335
0.997207	1.052644	-0.534809
0.997812	1.055074	-0.188854
0.998418	1.058719	0.125921
0.999023	1.068439	0.421718
0.999629	1.036241	0.713991
1.000234	1.039279	1.054252
1.000840	1.008297	1.311549
1.001445	1.004044	1.614395
1.002051	0.993109	1.802285
1.002656	0.951192	2.230932
1.003262	0.925070	2.590172
1.003867	0.960912	2.636535
1.004473	0.937220	3.119950
1.005078	0.915350	3.565950
1.005684	0.880115	3.797761
1.006289	0.906845	4.076477
1.006895	0.865535	4.360616
1.007500	0.886798	4.704673
1.008105	0.851563	4.966037
1.008711	0.873433	5.283524
1.009316	0.891050	5.579321
1.009922	0.867965	5.960522
1.010527	0.871610	6.172812
1.011133	0.865535	6.348501
1.011738	0.825441	6.894275
1.012344	0.744644	7.075928
1.012949	0.840020	7.283881
1.013555	0.843665	7.744793
1.014160	0.840628	8.060924
1.014766	0.866143	8.326626
1.015371	0.802356	8.611307
1.015977	0.896518	8.956719
1.016582	0.874040	9.289389
1.017187	0.900770	9.569732
1.017793	0.889835	9.862818
1.018398	0.889835	10.176780
1.019004	0.908667	10.579942
1.019609	0.894695	10.666702
1.020215	0.898947	10.967650
1.020820	0.855208	11.504748
1.021426	0.908667	11.718936
1.022031	0.907452	11.907368
1.022637	0.894695	12.284231
1.023242	0.926892	12.665161
1.023848	0.946940	12.917849
1.024453	0.931752	13.191685
1.025059	0.994932	13.550383
1.025664	0.962127	13.850518
1.026270	0.973669	14.069315
1.026875	0.929930	14.364027
1.027480	0.999792	14.730317
1.028086	1.006474	15.119109
1.028691	0.970632	15.112060
1.029297	1.028952	15.647531
1.029902	1.031989	16.098953
1.030508	1.014372	16.323716
1.031113	1.029559	16.597009
1.031719	1.078766	16.891993
1.032324	1.109141	17.221680
1.032930	1.067224	17.498770
1.033535	1.145591	17.801616
1.034141	1.093346	18.100395
1.034746	1.056896	18.393752
1.035352	1.089701	18.640475
1.035957	1.048999	18.897501
1.036563	1.076944	19.326691
1.037168	1.076944	19.519461
1.037773	1.073906	19.653939
1.038379	1.066009	20.094516
1.038984	1.075729	20.493340
1.039590	1.006474	20.746571
1.040195	1.005259	21.007935
1.040801	1.072084	21.338435
1.041406	1.030167	21.627183
1.042012	1.013157	21.890445
1.042617	1.078766	22.201154
1.043223	1.087879	22.503187
1.043828	1.044139	22.791392
1.044434	1.062364	22.954880
1.045039	1.050821	23.244983
1.045645	0.990072	23.756053
1.046250	1.052036	23.861792
1.046855	1.012549	24.197444
1.047461	1.065401	24.557226
1.048066	1.076336	24.854921
1.048672	1.083019	25.076430
1.049277	1.067831	25.382529
1.049883	1.042924	25.723604
1.050488	1.031382	25.961109
1.051094	1.039886	26.281307
1.051699	1.039886	26.556770
1.052305	1.045354	26.829521
1.052910	1.055074	27.193912
1.053516	1.005259	27.247324
1.054121	1.016194	27.651842
1.054727	1.072691	28.116549
1.055332	1.054466	28.207647
1.055937	0.994932	28.546824
1.056543	1.036849	28.836385
1.057148	1.059326	29.139773
1.057754	1.018017	29.371043
1.058359	1.014372	29.684734
1.058965	1.024092	29.944471
1.059570	1.035634	30.226170
1.060176	1.034419	30.476689
1.060781	1.036849	30.710398
1.061387	1.030167	31.118169
1.061992	1.037456	31.285724
1.062598	1.008904	31.435114
1.063203	1.049606	32.066021
1.063809	1.003437	32.285903
1.064414	1.041101	32.487891
1.065020	1.085449	32.754948
1.065625	1.049606	33.029326
1.066230	1.069046	33.364707
1.066836	1.039279	33.623360
1.067441	1.041709	33.841887
1.068047	1.041709	34.193264
1.068652	0.982782	34.489874
1.069258	0.977922	34.595884
1.069863	0.996147	34.873516
1.070469	0.954837	35.333343
1.071074	0.943295	35.485173
1.071680	0.956660	35.689058
1.072285	0.948762	36.056161
1.072891	0.974277	36.349789
1.073496	0.942080	36.640163
1.074102	0.913527	36.838084
1.074707	0.951192	37.143099
1.075312	0.916565	37.418291
1.075918	0.925070	37.730355
1.076523	0.939042	37.938579
1.077129	0.954837	38.279382
1.077734	0.921425	38.569214
1.078340	0.928715	38.645671
1.078945	0.964557	38.961803
1.079551	0.922640	39.458774
1.080156	0.922640	39.598403
1.080762	0.943295	39.836450
1.081367	0.913527	40.128994
1.081973	1.004044	40.408523
1.082578	0.996147	40.645215
1.083184	0.990679	40.941012
1.083789	0.954230	41.170926
1.084395	0.946940	41.432290
1.085000	0.962735	41.705854
1.085605	0.975492	41.919500
1.086211	0.985819	42.256779
1.086816	0.963950	42.466901
1.087422	0.949977	42.522210
1.088027	0.981567	42.908021
1.088633	0.952407	43.318503
1.089238	0.986427	43.485516
1.089844	0.953622	43.707567
1.090449	0.977314	44.018818
1.091055	1.018624	44.269066
1.091660	0.956660	44.491117
1.092266	0.993109	44.748414
1.092871	1.010727	44.986461
1.093477	1.030774	45.305846
1.094082	1.006474	45.485602
1.094688	1.037456	45.593509
1.095293	1.013157	46.087498
1.095898	1.023484	46.291655
1.096504	1.023484	46.390615
1.097109	1.031989	46.783204
1.097715	1.027737	47.069782
1.098320	1.064794	47.311897
1.098926	1.062971	47.548046
1.099531	1.076944	47.803174
1.100137	1.072691	48.044746
1.100742	1.073299	48.280896
1.101348	1.074514	48.489662
1.101953	1.018624	48.686498
1.102559	1.066616	49.105928
1.103164	1.100636	49.143614
1.103770	1.062971	49.368648
1.104375	1.070869	49.877006
1.104980	1.050821	49.944787
1.105586	1.065401	50.194222
1.106191	1.054466	50.459382
1.106797	1.065401	50.674383
1.107402	1.036849	50.874202
1.108008	1.034419	51.120654
1.108613	0.997969	51.352466
1.109219	1.041101	51.615999
1.109824	1.031989	51.803346
1.110430	1.009512	51.951380
1.111035	1.007082	52.271036
1.111641	0.983389	52.559512
1.112246	1.007689	52.593403
1.112852	0.960305	52.980298
1.113457	0.999184	53.294802
1.114062	1.007082	53.439583
1.114668	1.003437	53.721281
1.115273	1.003437	53.910797
1.115879	1.013157	54.163214
1.116484	0.990072	54.349477
1.117090	0.956660	54.564207
1.117695	0.965772	54.817980
1.118301	1.000399	55.048978
1.118906	0.988249	55.176407
1.119512	0.997969	55.365652
1.120117	1.001007	55.768543
1.120723	1.016194	55.894345
1.121328	1.011334	55.920372
1.121934	1.025914	56.372337
1.122539	1.007689	56.624483
1.123145	0.990072	56.772517
1.123750	0.975492	56.952544
1.124355	0.940865	57.200894
1.124961	0.900770	57.393934
1.125566	0.983997	57.601345
1.126172	0.973062	57.815533
1.126777	0.952407	58.077982
1.127383	0.974884	58.313860
1.127988	0.949977	58.368627
1.128594	0.966379	58.558414
1.129199	0.958482	59.020140
1.129805	0.962127	59.095512
1.130410	0.959697	59.192304
1.131016	1.007082	59.478611
1.131621	1.014372	59.683852
1.132227	1.014372	59.918646
1.132832	0.988857	60.124972
1.133438	1.002222	60.308252
1.134043	1.005259	60.543588
1.134648	1.014372	60.712228
1.135254	0.962127	60.834776
1.135859	0.983997	61.113492
1.136465	1.024699	61.398173
1.137070	1.009512	61.333374
1.137676	0.993109	61.620766
1.138281	1.014979	61.997358
1.138887	1.019232	62.067851
1.139492	1.027129	62.288546
1.140098	0.977922	62.452576
1.140703	0.942080	62.658089
1.141309	0.988857	62.841369
1.141914	1.002829	63.019498
1.142520	0.992502	63.222570
1.143125	1.009512	63.441097
1.143730	0.988857	63.586148
1.144336	0.983997	63.646880
1.144941	1.005259	64.013169
1.145547	1.005259	64.174488
1.146152	0.954230	64.170422
1.146758	0.940257	64.567890
1.147363	0.990072	64.755508
1.147969	0.982782	64.892969
1.148574	0.992502	65.055914
1.149180	1.003437	65.261698
1.149785	0.986427	65.461246
1.150391	1.004044	65.612533
1.150996	1.008904	65.775208
1.151602	0.928107	65.933545
1.152207	1.011334	66.147733
1.152813	0.997362	66.220123
1.153418	0.991287	66.331284
1.154023	1.029559	66.725770
1.154629	1.041101	66.816868
1.155234	1.018017	66.793552
1.155840	1.067224	67.082570
1.156445	1.045961	67.360473
1.157051	1.014372	67.464856
1.157656	1.005259	67.605299
1.158262	1.028344	67.802406
1.158867	1.016194	67.987313
1.159473	0.983389	68.106337
1.160078	0.986427	68.249762
1.160684	1.005259	68.477235
1.161289	1.024092	68.638012
1.161895	0.966987	68.581076
1.162500	0.965772	68.859521
1.163105	0.949977	69.220930
1.163711	0.915957	69.248042
1.164316	1.021054	69.389298
1.164922	1.004044	69.545195
1.165527	0.959090	69.683197
1.166133	0.984604	69.839907
1.166738	1.018624	70.012342
1.167344	1.013157	70.140042
1.167949	0.996147	70.295396
1.168555	1.019232	70.441533
1.169160	1.045961	70.537239
1.169766	1.069654	70.768780
1.170371	1.064794	70.938504
1.170977	1.099421	70.834392
1.171582	1.019839	71.092774
1.172187	1.066616	71.370405
1.172793	1.041101	71.421648
1.173398	1.027129	71.593812
1.174004	1.046569	71.727476
1.174609	1.044139	71.831588
1.175215	0.999792	71.916992
1.175820	1.002222	72.097561
1.176426	1.057504	72.250204
1.177031	1.036849	72.432942
1.177637	0.985819	72.439720
1.178242	1.030774	72.449752
1.178848	0.998577	72.851830
1.179453	1.006474	72.926118
1.180059	1.010119	72.927474
1.180664	0.974884	73.139764
1.181270	0.994324	73.247672
1.181875	0.994324	73.407906
1.182480	0.999792	73.512831
1.183086	1.004044	73.597965
1.183691	0.951800	73.724309
1.184297	0.978529	73.848755
1.184902	0.996754	73.937684
1.185508	0.976707	74.033662
1.186113	0.966987	74.301533
1.186719	0.965772	74.194167
1.187324	1.007082	74.298279
1.187930	0.979137	74.691139
1.188535	0.979744	74.653181
1.189141	0.971847	74.722047
1.189746	0.992502	74.839986
1.190352	0.962127	75.033840
1.190957	0.974884	75.108942
1.191563	1.016194	75.169674
1.192168	1.027129	75.243962
1.192773	0.963950	75.388200
1.193379	0.971239	75.458692
1.193984	0.993717	75.519967
1.194590	0.970632	75.604015
1.195195	0.920210	75.892492
1.195801	0.928715	75.759912
1.196406	0.944510	75.895745
1.197012	0.937220	76.188560
1.197617	0.920817	76.254172
1.198223	0.933575	76.324935
1.198828	0.949977	76.359368
1.199434	0.946940	76.505775
1.200039	0.924462	76.578708
1.200645	0.923247	76.638084
1.201250	0.950585	76.772562
1.201855	0.935397	76.848477
1.202461	0.939042	76.905142
1.203066	0.928107	76.810791
1.203672	0.941472	77.101436
1.204277	0.999184	77.261942
1.204883	0.993109	77.086795
1.205488	0.988857	77.258688
1.206094	0.977314	77.418652
1.206699	1.004652	77.519510
1.207305	0.954837	77.548249
1.207910	0.974277	77.643414
1.208516	0.974884	77.741832
1.209121	0.969417	77.807716
1.209727	0.999184	77.887426
1.210332	1.003437	77.969848
1.210937	0.971239	78.120051
1.211543	0.947547	78.008348
1.212148	0.963342	78.077756
1.212754	0.936005	78.417204
1.213359	0.944510	78.372739
1.213965	0.956660	78.404461
1.214570	0.909275	78.469259
1.215176	0.996754	78.519418
1.215781	0.962735	78.581234
1.216387	0.978529	78.672061
1.216992	1.010119	78.728455
1.217598	0.954230	78.766141
1.218203	0.945117	78.822264
1.218809	1.014979	78.798134
1.219414	1.030774	78.926375
1.220020	0.986427	79.024794
1.220625	0.997969	78.830397
1.221230	1.029559	79.007713
1.221836	1.018624	79.183944
1.222441	1.004044	79.145715
1.223047	1.017409	79.191264
1.223652	1.055074	79.309474
1.224258	1.059934	79.306221
1.224863	1.008297	79.330080
1.225469	1.045354	79.372375
1.226074	1.065401	79.441783
1.226680	1.031989	79.508209
1.227285	1.032597	79.443410
1.227891	1.050214	79.366953
1.228496	1.059934	79.635637
1.229102	1.004652	79.555384
1.229707	1.021054	79.453442
1.230312	1.068439	79.625063
1.230918	1.039279	79.751136
1.231523	0.980959	79.728362
1.232129	1.055681	79.766048
1.232734	1.059934	79.767675
1.233340	1.041101	79.858231
1.233945	1.021662	79.799397
1.234551	0.971847	79.821629
1.235156	1.015587	79.910558
1.235762	0.990679	79.963156
1.236367	0.983389	79.825153
1.236973	0.963342	79.877209
1.237578	1.024092	80.110376
1.238184	1.035634	79.952311
1.238789	1.027737	79.954751
1.239395	1.016802	79.997589
