LabVIEW Measurement	
Writer_Version	2
Reader_Version	2
Separator	Tab
Decimal_Separator	.
Multi_Headings	No
X_Columns	One
Time_Pref	Absolute
Operator	AlunosGDS-JT
Date	2019/10/09
Time	15:00:21.5558046812497091865
***End_of_Header***	
	
Channels	2		
Samples	2048	2048	
Date	2019/10/09	2019/10/09	
Time	15:00:53.0601601499997089444	15:00:53.0601601499997089444	
Y_Unit_Label	g	Newtons	
X_Dimension	Time	Time	
X0	0.0000000000000000E+0	0.0000000000000000E+0	
Delta_X	0.000605	0.000605	
***End_of_Header***			
X_Value	Acceleration (Trigger)	Force (Trigger)	Comment
0.000000	0.435428	1.295282
0.000605	0.400194	1.611142
0.001211	0.423886	1.905312
0.001816	0.391081	2.226866
0.002422	0.404446	2.509648
0.003027	0.417811	2.784569
0.003633	0.425708	3.150316
0.004238	0.402016	3.334952
0.004844	0.415381	3.599298
0.005449	0.423886	4.141276
0.006055	0.438466	4.384746
0.006660	0.405054	4.574533
0.007266	0.453046	4.936756
0.007871	0.485851	5.350220
0.008477	0.482813	5.662014
0.009082	0.441503	5.932596
0.009687	0.439073	6.269333
0.010293	0.446971	6.556996
0.010898	0.446363	6.912982
0.011504	0.430568	7.167839
0.012109	0.419634	7.410496
0.012715	0.471271	7.765398
0.013320	0.440896	8.176694
0.013926	0.474308	8.333675
0.014531	0.490103	8.515329
0.015137	0.475523	9.024500
0.015742	0.437858	9.407057
0.016348	0.450008	9.625041
0.016953	0.409306	9.911891
0.017559	0.443326	10.196843
0.018164	0.427531	10.545509
0.018770	0.430568	10.855405
0.019375	0.426316	11.152828
0.019980	0.459728	11.407685
0.020586	0.481598	11.754182
0.021191	0.491318	12.150838
0.021797	0.463981	12.222143
0.022402	0.470056	12.537732
0.023008	0.422671	13.062901
0.023613	0.430568	13.347853
0.024219	0.434213	13.585358
0.024824	0.430568	13.876003
0.025430	0.424493	14.180747
0.026035	0.420241	14.482509
0.026641	0.434213	14.793760
0.027246	0.439681	15.103926
0.027852	0.391081	15.340618
0.028457	0.449401	15.722361
0.029062	0.411736	16.034155
0.029668	0.425101	16.155347
0.030273	0.460943	16.629002
0.030879	0.424493	17.014541
0.031484	0.440896	17.111604
0.032090	0.412951	17.447256
0.032695	0.458513	17.798904
0.033301	0.423886	18.142148
0.033906	0.445756	18.422220
0.034512	0.406269	18.666232
0.035117	0.445148	18.971247
0.035723	0.425708	19.334283
0.036328	0.437858	19.580464
0.036934	0.436643	19.882497
0.037539	0.414166	20.074724
0.038145	0.428138	20.464872
0.038750	0.437251	20.847158
0.039355	0.383184	20.923615
0.039961	0.422064	21.288549
0.040566	0.415989	21.689271
0.041172	0.437858	22.026007
0.041777	0.413559	22.264868
0.042383	0.434821	22.575848
0.042988	0.395941	22.864596
0.043594	0.442718	23.189403
0.044199	0.482206	23.470559
0.044805	0.460336	23.736803
0.045410	0.430568	23.980273
0.046016	0.430568	24.441998
0.046621	0.447578	24.614976
0.047227	0.479776	24.753791
0.047832	0.498608	25.263235
0.048438	0.460336	25.557405
0.049043	0.471878	25.786776
0.049648	0.501645	26.082031
0.050254	0.473093	26.353697
0.050859	0.436036	26.650579
0.051465	0.480383	26.934717
0.052070	0.488888	27.234310
0.052676	0.476738	27.521431
0.053281	0.462766	27.800689
0.053887	0.460336	28.097300
0.054492	0.442718	28.230422
0.055098	0.496785	28.579359
0.055703	0.441503	29.051116
0.056309	0.498000	29.291332
0.056914	0.499823	29.482746
0.057520	0.470056	29.823278
0.058125	0.525945	30.165438
0.058730	0.458513	30.388844
0.059336	0.492533	30.671627
0.059941	0.499215	30.965797
0.060547	0.490103	31.251563
0.061152	0.491318	31.528923
0.061758	0.524730	31.804657
0.062363	0.516225	31.990648
0.062969	0.462158	32.381610
0.063574	0.454261	32.693132
0.064180	0.470663	32.763082
0.064785	0.453046	33.069724
0.065391	0.465196	33.472344
0.065996	0.446971	33.760007
0.066602	0.435428	34.020829
0.067207	0.479776	34.324217
0.067812	0.456691	34.581243
0.068418	0.458513	34.869720
0.069023	0.436036	35.110749
0.069629	0.479776	35.401124
0.070234	0.503468	35.658150
0.070840	0.508328	36.025524
0.071445	0.408699	36.145361
0.072051	0.451223	36.321863
0.072656	0.468841	36.876041
0.073262	0.400194	37.172109
0.073867	0.434213	37.346985
0.074473	0.405661	37.576356
0.075078	0.386829	37.878118
0.075684	0.427531	38.148700
0.076289	0.363744	38.381596
0.076895	0.402624	38.647027
0.077500	0.316967	38.913271
0.078105	0.360706	39.219100
0.078711	0.320004	39.478566
0.079316	0.343697	39.613586
0.079922	0.426316	39.930260
0.080527	0.347342	40.374633
0.081133	0.310284	40.487963
0.081738	0.335799	40.647655
0.082344	0.356454	41.030754
0.082949	0.321827	41.342005
0.083555	0.346734	41.580866
0.084160	0.343089	41.804001
0.084766	0.332762	42.076482
0.085371	0.354024	42.322392
0.085977	0.329117	42.607072
0.086582	0.328509	42.837528
0.087188	0.312107	43.018911
0.087793	0.333369	43.372457
0.088398	0.312107	43.671236
0.089004	0.325472	43.736035
0.089609	0.322434	44.134859
0.090215	0.315752	44.458582
0.090820	0.347949	44.694189
0.091426	0.291452	44.876927
0.092031	0.298134	45.139647
0.092637	0.302994	45.447102
0.093242	0.343697	45.736392
0.093848	0.330939	45.912081
0.094453	0.313929	46.167480
0.095059	0.347949	46.443214
0.095664	0.346734	46.772630
0.096270	0.355239	46.935847
0.096875	0.353417	47.043212
0.097480	0.394119	47.462371
0.098086	0.367996	47.779858
0.098691	0.343697	47.962325
0.099297	0.332154	48.178411
0.099902	0.360099	48.470683
0.100508	0.394726	48.714153
0.101113	0.361921	48.947591
0.101719	0.374071	49.208955
0.102324	0.386829	49.419619
0.102930	0.422671	49.692641
0.103535	0.429353	49.945872
0.104141	0.443326	50.068149
0.104746	0.434213	50.303485
0.105352	0.425708	50.754907
0.105957	0.437251	50.885861
0.106563	0.467626	51.049891
0.107168	0.479168	51.364124
0.107773	0.504075	51.635791
0.108379	0.519263	51.882786
0.108984	0.467626	52.095076
0.109590	0.482813	52.343968
0.110195	0.506505	52.581202
0.110801	0.521693	52.802440
0.111406	0.487673	53.037234
0.112012	0.538703	53.208856
0.112617	0.525945	53.467780
0.113223	0.535665	53.816988
0.113828	0.457906	53.872569
0.114434	0.541133	53.989695
0.115039	0.554498	54.415631
0.115645	0.520478	54.681876
0.116250	0.525945	54.884948
0.116855	0.519870	55.119742
0.117461	0.518655	55.356162
0.118066	0.509543	55.555981
0.118672	0.546600	55.783997
0.119277	0.527160	56.011470
0.119883	0.517440	56.182279
0.120488	0.545993	56.420597
0.121094	0.548423	56.661085
0.121699	0.549030	56.719648
0.122305	0.567255	57.091902
0.122910	0.551460	57.470120
0.123516	0.527768	57.590771
0.124121	0.509543	57.737991
0.124727	0.491925	57.914222
0.125332	0.488888	58.188872
0.125938	0.530805	58.392215
0.126543	0.455476	58.567090
0.127148	0.519263	58.791039
0.127754	0.484636	59.005770
0.128359	0.486458	59.219145
0.128965	0.469448	59.369077
0.129570	0.463373	59.493794
0.130176	0.456083	59.858457
0.130781	0.449401	60.030621
0.131387	0.477346	60.112229
0.131992	0.454261	60.328587
0.132598	0.468841	60.634686
0.133203	0.471271	60.857822
0.133809	0.432391	60.998807
0.134414	0.422064	61.172868
0.135020	0.455476	61.358318
0.135625	0.451831	61.608023
0.136230	0.443326	61.806758
0.136836	0.428138	61.921443
0.137441	0.442111	62.057277
0.138047	0.430568	62.421939
0.138652	0.419026	62.504903
0.139258	0.408699	62.616064
0.139863	0.408699	62.969069
0.140469	0.417204	63.201694
0.141074	0.366781	63.302552
0.141680	0.422671	63.445163
0.142285	0.402624	63.658538
0.142891	0.388044	63.865949
0.143496	0.408091	64.025099
0.144102	0.395941	64.200516
0.144707	0.402624	64.365902
0.145313	0.414166	64.591478
0.145918	0.417204	64.868567
0.146523	0.414166	64.847962
0.147129	0.410521	65.050763
0.147734	0.381361	65.397260
0.148340	0.361921	65.533365
0.148945	0.406876	65.670825
0.149551	0.400801	65.843260
0.150156	0.305424	66.046332
0.150762	0.348557	66.194637
0.151367	0.400801	66.393372
0.151973	0.364351	66.550082
0.152578	0.349772	66.728753
0.153184	0.397764	66.932096
0.153789	0.361921	67.031870
0.154395	0.383184	67.046240
0.155000	0.356454	67.415782
0.155605	0.352809	67.632411
0.156211	0.309677	67.617499
0.156816	0.352809	67.806744
0.157422	0.366781	68.064041
0.158027	0.363744	68.216413
0.158633	0.372856	68.411623
0.159238	0.400194	68.545830
0.159844	0.341874	68.694948
0.160449	0.407484	68.883380
0.161055	0.352202	69.006741
0.161660	0.340052	69.137966
0.162266	0.380754	69.285457
0.162871	0.390474	69.554955
0.163477	0.365566	69.609722
0.164082	0.361314	69.619483
0.164687	0.350379	69.906062
0.165293	0.380146	70.128655
0.165898	0.370426	70.244696
0.166504	0.360706	70.379987
0.167109	0.372249	70.518532
0.167715	0.393511	70.699643
0.168320	0.347949	70.798604
0.168926	0.389259	70.963176
0.169531	0.406876	71.101992
0.170137	0.414774	71.267378
0.170742	0.422064	71.353596
0.171348	0.400801	71.370405
0.171953	0.438466	71.663491
0.172559	0.415381	71.988298
0.173164	0.386829	71.931633
0.173770	0.417811	72.082921
0.174375	0.437858	72.282197
0.174980	0.423886	72.406101
0.175586	0.375894	72.515906
0.176191	0.426923	72.641437
0.176797	0.380754	72.762630
0.177402	0.371034	72.890330
0.178008	0.369211	73.078490
0.178613	0.409306	73.092588
0.179219	0.376501	73.153049
0.179824	0.389866	73.402484
0.180430	0.458513	73.610707
0.181035	0.422064	73.498462
0.181641	0.412951	73.674964
0.182246	0.380754	73.910029
0.182852	0.378324	74.045320
0.183457	0.395334	74.125573
0.184062	0.406269	74.251646
0.184668	0.452438	74.407271
0.185273	0.389259	74.513823
0.185879	0.406876	74.634474
0.186484	0.403231	74.714456
0.187090	0.422064	74.774374
0.187695	0.447578	74.994256
0.188301	0.411129	75.058241
0.188906	0.427531	75.000763
0.189512	0.408091	75.337500
0.190117	0.414166	75.467097
0.190723	0.420241	75.505326
0.191328	0.405054	75.559009
0.191934	0.484636	75.726292
0.192539	0.469448	75.838809
0.193145	0.428746	75.921773
0.193750	0.431783	75.974371
0.194355	0.432998	76.131352
0.194961	0.465803	76.215943
0.195566	0.511973	76.372924
0.196172	0.457298	76.296738
0.196777	0.525945	76.385938
0.197383	0.441503	76.717524
0.197988	0.481598	76.681464
0.198594	0.447578	76.706408
0.199199	0.471271	76.903786
0.199805	0.511365	77.047753
0.200410	0.477346	77.047753
0.201016	0.486458	77.162710
0.201621	0.457298	77.203108
0.202227	0.471271	77.338399
0.202832	0.502860	77.423803
0.203437	0.492533	77.454169
0.204043	0.507720	77.433564
0.204648	0.488281	77.692488
0.205254	0.501645	77.813409
0.205859	0.509543	77.712280
0.206465	0.511973	77.795244
0.207070	0.526553	78.015939
0.207676	0.493748	78.070435
0.208281	0.524123	78.131438
0.208887	0.552068	78.215758
0.209492	0.575152	78.314718
0.210098	0.534450	78.389820
0.210703	0.503468	78.415035
0.211309	0.552675	78.499625
0.211914	0.524123	78.531076
0.212520	0.522908	78.715712
0.213125	0.491318	78.726014
0.213730	0.506505	78.535956
0.214336	0.528983	78.793524
0.214941	0.510758	78.916886
0.215547	0.491318	78.958368
0.216152	0.485243	78.981143
0.216758	0.489496	79.003917
0.217363	0.485851	79.052177
0.217969	0.500430	79.144360
0.218574	0.505290	79.187468
0.219180	0.483421	79.211327
0.219785	0.502253	79.241693
0.220391	0.493748	79.348516
0.220996	0.484028	79.264197
0.221602	0.508328	79.307848
0.222207	0.497393	79.567043
0.222812	0.479776	79.566229
0.223418	0.474916	79.528272
0.224023	0.474308	79.587919
0.224629	0.422064	79.623708
0.225234	0.459728	79.683897
0.225840	0.420241	79.706943
0.226445	0.446971	79.736767
0.227051	0.422064	79.808886
0.227656	0.424493	79.833829
0.228262	0.372249	79.838438
0.228867	0.413559	79.779604
0.229473	0.361921	79.834100
0.230078	0.399586	80.020363
0.230684	0.338837	79.938483
0.231289	0.358884	79.809699
0.231895	0.402016	79.937941
0.232500	0.361314	80.056694
0.233105	0.364351	80.056694
0.233711	0.308462	80.032293
0.234316	0.343697	80.108750
0.234922	0.333369	80.134506
0.235527	0.318182	80.163517
0.236133	0.347342	80.183580
0.236738	0.305424	80.137218
0.237344	0.324864	80.233467
0.237949	0.339444	80.246481
0.238555	0.325472	80.066996
0.239160	0.329724	80.257597
0.239766	0.291452	80.398311
0.240371	0.282947	80.318871
0.240977	0.308462	80.306942
0.241582	0.306032	80.309382
0.242187	0.276265	80.295283
0.242793	0.270190	80.351948
0.243398	0.299349	80.333512
0.244004	0.307854	80.293657
0.244609	0.377716	80.333241
0.245215	0.307854	80.375807
0.245820	0.340659	80.374723
0.246426	0.381969	80.196865
0.247031	0.402016	80.383941
0.247637	0.327294	80.485071
0.248242	0.353417	80.286607
0.248848	0.375286	80.327818
0.249453	0.383791	80.383670
0.250059	0.371034	80.327005
0.250664	0.387436	80.348424
0.251270	0.406876	80.350593
0.251875	0.379539	80.314804
0.252480	0.402624	80.356015
0.253086	0.401409	80.350864
0.253691	0.429353	80.210421
0.254297	0.467018	80.161077
0.254902	0.427531	80.366047
0.255508	0.422671	80.238889
0.256113	0.413559	80.108207
0.256719	0.459728	80.238076
0.257324	0.442111	80.264375
0.257930	0.451831	80.270882
0.258535	0.463981	80.217471
0.259141	0.504683	80.230213
0.259746	0.475523	80.158637
0.260352	0.465803	80.180327
0.260957	0.484028	80.130169
0.261562	0.489496	80.146165
0.262168	0.513795	80.130169
0.262773	0.482813	80.188189
0.263379	0.463373	79.924656
0.263984	0.524730	79.889952
0.264590	0.519263	80.055609
0.265195	0.448793	79.991895
0.265801	0.462158	79.905948
0.266406	0.501645	79.905406
0.267012	0.537488	79.821629
0.267617	0.477346	79.782316
0.268223	0.473701	79.717246
0.268828	0.501645	79.673866
0.269434	0.459728	79.633468
0.270039	0.472486	79.618556
0.270645	0.484636	79.530983
0.271250	0.510758	79.323302
0.271855	0.484028	79.491128
0.272461	0.473701	79.501702
0.273066	0.482206	79.327640
0.273672	0.471271	79.325200
0.274277	0.493140	79.316524
0.274883	0.521693	79.276668
0.275488	0.509543	79.201838
0.276094	0.492533	79.093388
0.276699	0.456083	79.038621
0.277305	0.474308	79.012864
0.277910	0.495570	78.960266
0.278516	0.471878	78.812503
0.279121	0.515618	78.748518
0.279727	0.480991	78.816028
0.280332	0.450008	78.604822
0.280938	0.446363	78.426151
0.281543	0.485851	78.503421
0.282148	0.497393	78.497728
0.282754	0.476738	78.450281
0.283359	0.497393	78.348338
0.283965	0.449401	78.251004
0.284570	0.490103	78.204913
0.285176	0.470056	78.132794
0.285781	0.492533	78.059590
0.286387	0.477953	77.949243
0.286992	0.463981	77.889866
0.287598	0.412344	77.830219
0.288203	0.453046	77.587291
0.288809	0.429961	77.592443
0.289414	0.414166	77.728547
0.290020	0.405661	77.562619
0.290625	0.392296	77.409162
0.291230	0.397764	77.329452
0.291836	0.364959	77.233203
0.292441	0.377716	77.129633
0.293047	0.406269	77.096014
0.293652	0.389866	76.931170
0.294258	0.399586	76.895924
0.294863	0.447578	76.775273
0.295469	0.445756	76.648929
0.296074	0.431176	76.523670
0.296680	0.473701	76.540208
0.297285	0.445148	76.471614
0.297891	0.470056	76.205912
0.298496	0.449401	76.157109
0.299102	0.418419	76.178799
0.299707	0.504075	76.102342
0.300312	0.395334	75.924756
0.300918	0.432391	75.819830
0.301523	0.411736	75.698909
0.302129	0.424493	75.609438
0.302734	0.420849	75.493667
0.303340	0.467626	75.321503
0.303945	0.462766	75.211427
0.304551	0.411129	75.203022
0.305156	0.442111	74.998594
0.305762	0.459728	74.810705
0.306367	0.452438	74.897465
0.306973	0.450008	74.807722
0.307578	0.432998	74.623900
0.308184	0.478561	74.540394
0.308789	0.484636	74.402933
0.309395	0.432391	74.323494
0.310000	0.462766	74.202301
0.310605	0.456083	74.080566
0.311211	0.453046	73.978895
0.311816	0.437251	73.879663
0.312422	0.453653	73.782329
0.313027	0.482206	73.455624
0.313633	0.480991	73.411431
0.314238	0.471878	73.434748
0.314844	0.443933	73.185855
0.315449	0.457298	73.016945
0.316055	0.477953	72.943199
0.316660	0.427531	72.773746
0.317266	0.429353	72.656078
0.317871	0.468233	72.495843
0.318477	0.465803	72.383055
0.319082	0.489496	72.280570
0.319688	0.465803	72.149617
0.320293	0.468841	71.916179
0.320898	0.479776	71.741846
0.321504	0.485851	71.785768
0.322109	0.437858	71.605470
0.322715	0.457906	71.302353
0.323320	0.455476	71.318620
0.323926	0.484636	71.232945
0.324531	0.389866	71.010623
0.325137	0.411129	70.852828
0.325742	0.392904	70.741667
0.326348	0.327294	70.523412
0.326953	0.416596	70.437195
0.327559	0.402624	70.257168
0.328164	0.434821	70.080937
0.328770	0.395941	69.957575
0.329375	0.377109	69.885456
0.329980	0.403231	69.589930
0.330586	0.411736	69.320975
0.331191	0.414774	69.371946
0.331797	0.396549	69.212796
0.332402	0.367996	69.063949
0.333008	0.387436	68.855454
0.333613	0.388044	68.745920
0.334219	0.357061	68.555590
0.334824	0.361921	68.436838
0.335430	0.410521	68.260335
0.336035	0.355239	68.117453
0.336641	0.318182	67.988398
0.337246	0.350987	67.804304
0.337852	0.275657	67.432050
0.338457	0.355239	67.365896
0.339062	0.307247	67.413342
0.339668	0.270797	67.186140
0.340273	0.312107	66.914202
0.340879	0.262900	66.756408
0.341484	0.287807	66.625183
0.342090	0.276872	66.408826
0.342695	0.291452	66.289802
0.343301	0.324257	66.063142
0.343906	0.312107	65.925411
0.344512	0.318182	65.731557
0.345117	0.329724	65.535805
0.345723	0.349772	65.320532
0.346328	0.373464	65.321074
0.346934	0.373464	65.197441
0.347539	0.303602	64.791026
0.348145	0.353417	64.635400
0.348750	0.359491	64.594731
0.349355	0.388044	64.448053
0.349961	0.394726	64.267755
0.350566	0.370426	64.051398
0.351172	0.392904	63.854561
0.351777	0.391081	63.657725
0.352383	0.367996	63.451399
0.352988	0.425101	63.237211
0.353594	0.425708	63.019498
0.354199	0.455476	62.918097
0.354805	0.409306	62.610642
0.355410	0.422064	62.365003
0.356016	0.464588	62.370968
0.356621	0.439681	62.233237
0.357227	0.455476	61.958045
0.357832	0.505290	61.743315
0.358438	0.489496	61.561661
0.359043	0.538703	61.403867
0.359648	0.527160	61.189407
0.360254	0.528375	60.990402
0.360859	0.541740	60.800886
0.361465	0.535058	60.644447
0.362070	0.535665	60.422125
0.362676	0.552675	60.085930
0.363281	0.556928	59.959315
0.363887	0.557535	59.882044
0.364492	0.549030	59.570522
0.365098	0.586087	59.331933
0.365703	0.564825	59.199353
0.366309	0.576367	58.988689
0.366914	0.575760	58.757962
0.367520	0.588517	58.553534
0.368125	0.594592	58.384895
0.368730	0.557535	58.148203
0.369336	0.599452	57.897684
0.369941	0.624967	57.669668
0.370547	0.612210	57.406948
0.371152	0.620715	57.314224
0.371758	0.598845	57.088919
0.372363	0.583657	56.695518
0.372969	0.612817	56.682775
0.373574	0.570292	56.507086
0.374180	0.596415	56.246806
0.374785	0.626182	56.002252
0.375391	0.570900	55.757155
0.375996	0.535665	55.535376
0.376602	0.556928	55.308715
0.377207	0.566040	55.088562
0.377812	0.527160	54.844550
0.378418	0.553283	54.593760
0.379023	0.577582	54.461180
0.379629	0.552675	54.052867
0.380234	0.572722	53.852234
0.380840	0.572722	53.789062
0.381445	0.563002	53.500315
0.382051	0.491318	53.188250
0.382656	0.532628	53.029371
0.383262	0.483421	52.813014
0.383867	0.544170	52.567104
0.384473	0.470663	52.334750
0.385078	0.516225	52.087214
0.385684	0.498608	51.893631
0.386289	0.518655	51.605967
0.386895	0.502253	51.391237
0.387500	0.515618	50.973976
0.388105	0.485851	50.880980
0.388711	0.470056	50.774971
0.389316	0.448186	50.373977
0.389922	0.423886	50.098515
0.390527	0.422671	49.950481
0.391133	0.405054	49.682610
0.391738	0.435428	49.483333
0.392344	0.408091	49.221698
0.392949	0.418419	48.995580
0.393555	0.376501	48.707646
0.394160	0.437251	48.508641
0.394766	0.403839	48.173259
0.395371	0.445756	47.933314
0.395977	0.446971	47.835438
0.396582	0.426923	47.499515
0.397187	0.408091	47.079001
0.397793	0.412344	46.953470
0.398398	0.413559	46.840411
0.399004	0.381361	46.540276
0.399609	0.406876	46.243124
0.400215	0.401409	45.983658
0.400820	0.398371	45.738290
0.401426	0.382576	45.495362
0.402031	0.397764	45.263822
0.402637	0.377716	44.946064
0.403242	0.358276	44.687140
0.403848	0.388651	44.480001
0.404453	0.375894	44.054064
0.405059	0.349164	43.812221
0.405664	0.365566	43.792158
0.406270	0.320612	43.511273
0.406875	0.383184	43.167216
0.407480	0.403839	42.915070
0.408086	0.382576	42.688952
0.408691	0.386221	42.407254
0.409297	0.410521	42.142365
0.409902	0.381969	41.885610
0.410508	0.416596	41.641598
0.411113	0.354024	41.375625
0.411719	0.392904	41.150862
0.412324	0.413559	40.736584
0.412930	0.395941	40.589635
0.413535	0.383184	40.377344
0.414141	0.375894	39.911281
0.414746	0.394726	39.639072
0.415352	0.432998	39.516252
0.415957	0.408091	39.302877
0.416563	0.395334	38.990542
0.417168	0.391081	38.701794
0.417773	0.387436	38.436634
0.418379	0.422064	38.224344
0.418984	0.422671	37.925565
0.419590	0.477953	37.692940
0.420195	0.457906	37.367319
0.420801	0.475523	37.158282
0.421406	0.444541	36.842964
0.422012	0.483421	36.432211
0.422617	0.441503	36.364158
0.423223	0.429353	36.176269
0.423828	0.437858	35.797779
0.424434	0.454868	35.521503
0.425039	0.446363	35.246854
0.425645	0.437251	34.984134
0.426250	0.434821	34.701623
0.426855	0.366781	34.382238
0.427461	0.428138	34.119789
0.428066	0.432998	33.854087
0.428672	0.452438	33.628512
0.429277	0.446971	33.228603
0.429883	0.466411	32.887528
0.430488	0.465803	32.832761
0.431094	0.421456	32.517985
0.431699	0.460336	32.179893
0.432305	0.464588	31.907684
0.432910	0.423279	31.704069
0.433516	0.451831	31.405832
0.434121	0.460943	31.097022
0.434727	0.448793	30.786855
0.435332	0.442111	30.545825
0.435937	0.448793	30.267380
0.436543	0.445756	29.957214
0.437148	0.464588	29.588756
0.437754	0.481598	29.340677
0.438359	0.436643	29.215417
0.438965	0.431176	28.758843
0.439570	0.445148	28.452202
0.440176	0.451831	28.288713
0.440781	0.437251	28.033043
0.441387	0.438466	27.714472
0.441992	0.423886	27.358485
0.442598	0.418419	27.110948
0.443203	0.507720	26.857718
0.443809	0.460943	26.509594
0.444414	0.465196	26.246332
0.445020	0.465196	25.949451
0.445625	0.482206	25.752885
0.446230	0.439681	25.435399
0.446836	0.437858	24.967980
0.447441	0.452438	24.789309
0.448047	0.478561	24.601148
0.448652	0.498000	24.267394
0.449258	0.491925	24.009555
0.449863	0.530805	23.734905
0.450469	0.474308	23.406302
0.451074	0.477346	23.079055
0.451680	0.493748	22.784072
0.452285	0.529590	22.540873
0.452891	0.505898	22.213354
0.453496	0.533235	21.949008
0.454102	0.531413	21.525240
0.454707	0.587302	21.256556
0.455313	0.547815	21.182539
0.455918	0.532628	20.760669
0.456523	0.601882	20.399802
0.457129	0.598845	20.128135
0.457734	0.584872	19.910422
0.458340	0.563610	19.609203
0.458945	0.572115	19.283582
0.459551	0.577582	19.012729
0.460156	0.597022	18.747840
0.460762	0.607350	18.437403
0.461367	0.577582	18.065962
0.461973	0.578797	17.738172
0.462578	0.598845	17.513681
0.463184	0.555105	17.255029
0.463789	0.584872	16.759142
0.464395	0.646229	16.501302
0.465000	0.604312	16.326969
0.465605	0.627397	16.020327
0.466211	0.574545	15.652954
0.466816	0.614640	15.409213
0.467422	0.614032	15.092268
0.468027	0.627397	14.789422
0.468633	0.623752	14.474375
0.469238	0.566647	14.169089
0.469844	0.597630	13.887933
0.470449	0.641977	13.621146
0.471055	0.645622	13.231540
0.471660	0.595807	12.848170
0.472266	0.651089	12.761952
0.472871	0.610995	12.506011
0.473477	0.586695	12.090377
0.474082	0.557535	11.744422
0.474687	0.563002	11.438593
0.475293	0.576367	11.178043
0.475898	0.531413	10.844560
0.476504	0.561787	10.545238
0.477109	0.558143	10.203079
0.477715	0.538703	9.954458
0.478320	0.533235	9.654594
0.478926	0.515618	9.154369
0.479531	0.507720	8.899241
0.480137	0.445148	8.789707
0.480742	0.496785	8.260200
0.481348	0.491925	7.972808
0.481953	0.481598	7.781123
0.482559	0.504683	7.468245
0.483164	0.463981	7.181125
0.483770	0.476131	6.825409
0.484375	0.421456	6.525003
0.484980	0.442718	6.247372
0.485586	0.456691	5.958082
0.486191	0.422671	5.589081
0.486797	0.390474	5.246109
0.487402	0.391081	5.002639
0.488008	0.400801	4.688134
0.488613	0.377716	4.180589
0.489219	0.352809	4.021439
0.489824	0.337622	3.860662
0.490430	0.367996	3.467532
0.491035	0.394726	3.163601
0.491641	0.340659	2.812223
0.492246	0.306032	2.508293
0.492852	0.259862	2.170472
0.493457	0.365566	1.895280
0.494063	0.338229	1.582945
0.494668	0.337622	1.287419
0.495273	0.260470	1.098445
0.495879	0.301172	0.675491
0.496484	0.352202	0.249825
0.497090	0.320004	0.092573
0.497695	0.327294	-0.142492
0.498301	0.323649	-0.562735
0.498906	0.304209	-0.831962
0.499512	0.307854	-1.133452
0.500117	0.340052	-1.412710
0.500723	0.325472	-1.738873
0.501328	0.297527	-2.066934
0.501934	0.303602	-2.367882
0.502539	0.304817	-2.629246
0.503145	0.305424	-2.935075
0.503750	0.358276	-3.355318
0.504355	0.357061	-3.717269
0.504961	0.366781	-3.809180
0.505566	0.366174	-4.154051
0.506172	0.347949	-4.618758
0.506777	0.388044	-4.743747
0.507383	0.433606	-5.062860
0.507988	0.412951	-5.400682
0.508594	0.411736	-5.689700
0.509199	0.390474	-5.965434
0.509805	0.452438	-6.231949
0.510410	0.441503	-6.562993
0.511016	0.444541	-6.840353
0.511621	0.485851	-7.197695
0.512227	0.519870	-7.464211
0.512832	0.521693	-7.700089
0.513437	0.405661	-8.209532
0.514043	0.450008	-8.538948
0.514648	0.474308	-8.683187
0.515254	0.494355	-9.013958
0.515859	0.489496	-9.302706
0.516465	0.498608	-9.605281
0.517070	0.514403	-9.916803
0.517676	0.511973	-10.187657
0.518281	0.501038	-10.518700
0.518887	0.510150	-10.780877
0.519492	0.536880	-11.114360
0.520098	0.580012	-11.402566
0.520703	0.530805	-11.689958
0.521309	0.556928	-12.157105
0.521914	0.640154	-12.268267
0.522520	0.562395	-12.429315
0.523125	0.564217	-12.860403
0.523730	0.575760	-13.170840
0.524336	0.587302	-13.455521
0.524941	0.533843	-13.737219
0.525547	0.568470	-14.032474
0.526152	0.585480	-14.354841
0.526758	0.577582	-14.670159
0.527363	0.569077	-15.008251
0.527969	0.586695	-15.269073
0.528574	0.575152	-15.597405
0.529180	0.576975	-15.997585
0.529785	0.577582	-16.149415
0.530391	0.554498	-16.497538
0.530996	0.586695	-16.932693
0.531602	0.568470	-17.185381
0.532207	0.586087	-17.358359
0.532813	0.558750	-17.695909
0.533418	0.575760	-18.028037
0.534023	0.536880	-18.280454
0.534629	0.540525	-18.525550
0.535234	0.564825	-18.850900
0.535840	0.530198	-19.166489
0.536445	0.525338	-19.534405
0.537051	0.501038	-19.785195
0.537656	0.499823	-19.985556
0.538262	0.482206	-20.478731
0.538867	0.521693	-20.769919
0.539473	0.474916	-20.855323
0.540078	0.462766	-21.180944
0.540684	0.510758	-21.527441
0.541289	0.496178	-21.839234
0.541895	0.472486	-22.158348
0.542500	0.494963	-22.406427
0.543105	0.478561	-22.723372
0.543711	0.473701	-23.038147
0.544316	0.519263	-23.358888
0.544922	0.491925	-23.571449
0.545527	0.471878	-23.891918
0.546133	0.491318	-24.380214
0.546738	0.526553	-24.563765
0.547344	0.491318	-24.715053
0.547949	0.511973	-25.115504
0.548555	0.476131	-25.448445
0.549160	0.443933	-25.698421
0.549766	0.480991	-25.959243
0.550371	0.445756	-26.331768
0.550977	0.469448	-26.592048
0.551582	0.483421	-26.875644
0.552187	0.473701	-27.119927
0.552793	0.485243	-27.392679
0.553398	0.477953	-27.815904
0.554004	0.530198	-28.146676
0.554609	0.477346	-28.278443
0.555215	0.507113	-28.512965
0.555820	0.494355	-29.002345
0.556426	0.526553	-29.204875
0.557031	0.549638	-29.398458
0.557637	0.535665	-29.740617
0.558242	0.512580	-30.032347
0.558848	0.510150	-30.312148
0.559453	0.510758	-30.556431
0.560059	0.559358	-30.854126
0.560664	0.540525	-31.140433
0.561270	0.507113	-31.515399
0.561875	0.541740	-31.720369
0.562480	0.573330	-31.938895
0.563086	0.533843	-32.281868
0.563691	0.516833	-32.730037
0.564297	0.594592	-32.876444
0.564902	0.512580	-33.038305
0.565508	0.573937	-33.346845
0.566113	0.560572	-33.650233
0.566719	0.531413	-33.956062
0.567324	0.567255	-34.231524
0.567930	0.553890	-34.515392
0.568535	0.513795	-34.798717
0.569141	0.562395	-35.066046
0.569746	0.519263	-35.354251
0.570352	0.540525	-35.569253
0.570957	0.510150	-36.001697
0.571562	0.536880	-36.268212
0.572168	0.541133	-36.285564
0.572773	0.473093	-36.579463
0.573379	0.528983	-36.969340
0.573984	0.529590	-37.275440
0.574590	0.502860	-37.490171
0.575195	0.537488	-37.783527
0.575801	0.523515	-38.011001
0.576406	0.541133	-38.296224
0.577012	0.475523	-38.596901
0.577617	0.494963	-38.844980
0.578223	0.476738	-39.135897
0.578828	0.470663	-39.506524
0.579434	0.454868	-39.754332
0.580039	0.469448	-39.863595
0.580645	0.423279	-40.251574
0.581250	0.456691	-40.663955
0.581855	0.465196	-40.782978
0.582461	0.498000	-40.970596
0.583066	0.473701	-41.257988
0.583672	0.425708	-41.548905
0.584277	0.485851	-41.793188
0.584883	0.411129	-42.055095
0.585488	0.430568	-42.317543
0.586094	0.471878	-42.599784
0.586699	0.463981	-42.937876
0.587305	0.429353	-43.141220
0.587910	0.425101	-43.349986
0.588516	0.380146	-43.853464
0.589121	0.438466	-44.016952
0.589727	0.408699	-44.147363
0.590332	0.376501	-44.433941
0.590938	0.366174	-44.734076
0.591543	0.382576	-45.019571
0.592148	0.417811	-45.232946
0.592754	0.402624	-45.459606
0.593359	0.353417	-45.665660
0.593965	0.406876	-45.987756
0.594570	0.390474	-46.304159
0.595176	0.453653	-46.435925
0.595781	0.420241	-46.686987
0.596387	0.404446	-47.114008
0.596992	0.432391	-47.225440
0.597598	0.406269	-47.371847
0.598203	0.370426	-47.729732
0.598809	0.400801	-47.961543
0.599414	0.429961	-48.207995
0.600020	0.381361	-48.470173
0.600625	0.415989	-48.722319
0.601230	0.438466	-48.961450
0.601836	0.429961	-49.178892
0.602441	0.434213	-49.439443
0.603047	0.396549	-49.675321
0.603652	0.442718	-49.990097
0.604258	0.446363	-50.330358
0.604863	0.429961	-50.314904
0.605469	0.467018	-50.625071
0.606074	0.441503	-50.982142
0.606680	0.451831	-51.105503
0.607285	0.504683	-51.323759
0.607891	0.539918	-51.533609
0.608496	0.471271	-51.800125
0.609102	0.530198	-52.004010
0.609707	0.553283	-52.256156
0.610313	0.555713	-52.451908
0.610918	0.536273	-52.718695
0.611523	0.524730	-52.988192
0.612129	0.522300	-53.194518
0.612734	0.539310	-53.312186
0.613340	0.558750	-53.662479
0.613945	0.547208	-54.027413
0.614551	0.554498	-54.098447
0.615156	0.542955	-54.260851
0.615762	0.553283	-54.518419
0.616367	0.553890	-54.784935
0.616973	0.529590	-55.025964
0.617578	0.568470	-55.178336
0.618184	0.576975	-55.438074
0.618789	0.597022	-55.633826
0.619395	0.625575	-55.887056
0.620000	0.583050	-56.132153
0.620605	0.617677	-56.262835
0.621211	0.593985	-56.642951
0.621816	0.585480	-56.860393
0.622422	0.572115	-56.836534
0.623027	0.586087	-57.027406
0.623633	0.592770	-57.368481
0.624238	0.612210	-57.609510
0.624844	0.528375	-57.818819
0.625449	0.570900	-58.006166
0.626055	0.548423	-58.235808
0.626660	0.541740	-58.427222
0.627266	0.560572	-58.650900
0.627871	0.559965	-58.836891
0.628477	0.567862	-59.118319
0.629082	0.586087	-59.416556
0.629687	0.558143	-59.509551
0.630293	0.546600	-59.625321
0.630898	0.550853	-59.992424
0.631504	0.557535	-60.288492
0.632109	0.569685	-60.347326
0.632715	0.558750	-60.506205
0.633320	0.540525	-60.750759
0.633926	0.544778	-60.996398
0.634531	0.574545	-61.150126
0.635137	0.502253	-61.365941
0.635742	0.517440	-61.533496
0.636348	0.549030	-61.807603
0.636953	0.542348	-62.047819
0.637559	0.510150	-62.150847
0.638164	0.487066	-62.352834
0.638770	0.480991	-62.740000
0.639375	0.485851	-62.801546
0.639980	0.451831	-62.913249
0.640586	0.446363	-63.142349
0.641191	0.457906	-63.338643
0.641797	0.429961	-63.566117
0.642402	0.457906	-63.715778
0.643008	0.409306	-63.954638
0.643613	0.443326	-64.110806
0.644219	0.442111	-64.291917
0.644824	0.507720	-64.460015
0.645430	0.475523	-64.573073
0.646035	0.439681	-64.873208
0.646641	0.486458	-65.158160
0.647246	0.470056	-65.123185
0.647852	0.474308	-65.287216
0.648457	0.441503	-65.573523
0.649062	0.453046	-65.697969
0.649668	0.474916	-65.846545
0.650273	0.442111	-66.067241
0.650879	0.493140	-66.228018
0.651484	0.471878	-66.441122
0.652090	0.470056	-66.582378
0.652695	0.484636	-66.787077
0.653301	0.445148	-66.947311
0.653906	0.497393	-67.271305
0.654512	0.481598	-67.430726
0.655117	0.443326	-67.352371
0.655723	0.466411	-67.666334
0.656328	0.437251	-67.896518
0.656934	0.456691	-67.978940
0.657539	0.521693	-68.136463
0.658145	0.521693	-68.266061
0.658750	0.504683	-68.429278
0.659355	0.498000	-68.616083
0.659961	0.494355	-68.804243
0.660566	0.485243	-68.964207
0.661172	0.529590	-69.107632
0.661777	0.521085	-69.349475
0.662383	0.505290	-69.497238
0.662988	0.486458	-69.508354
0.663594	0.512580	-69.799542
0.664199	0.531413	-70.080427
0.664805	0.516225	-70.062532
0.665410	0.542348	-70.172067
0.666016	0.498000	-70.335555
0.666621	0.508328	-70.519919
0.667227	0.542955	-70.695066
0.667832	0.558750	-70.815174
0.668438	0.533235	-70.974866
0.669043	0.536880	-71.123714
0.669648	0.520478	-71.357694
0.670254	0.535058	-71.438761
0.670859	0.498608	-71.490816
0.671465	0.513795	-71.814268
0.672070	0.568470	-71.950373
0.672676	0.518655	-71.834060
0.673281	0.543563	-72.054484
0.673887	0.523515	-72.213906
0.674492	0.505290	-72.431619
0.675098	0.542955	-72.512685
0.675703	0.498000	-72.640113
0.676309	0.502860	-72.801704
0.676914	0.501645	-72.933741
0.677520	0.465803	-73.101025
0.678125	0.497393	-73.165824
0.678730	0.479168	-73.296777
0.679336	0.479776	-73.574409
0.679941	0.471271	-73.631074
0.680547	0.508935	-73.614264
0.681152	0.444541	-73.868579
0.681758	0.512580	-73.987331
0.682363	0.476131	-74.092799
0.682969	0.442111	-74.206129
0.683574	0.456083	-74.348740
0.684180	0.494963	-74.446616
0.684785	0.493140	-74.588415
0.685391	0.476131	-74.652129
0.685996	0.465803	-74.771152
0.686602	0.436036	-74.981816
0.687207	0.473701	-75.191396
0.687813	0.433606	-75.186786
0.688418	0.377716	-75.217695
0.689023	0.417811	-75.504273
0.689629	0.392296	-75.542502
0.690234	0.358884	-75.594829
0.690840	0.414166	-75.754250
0.691445	0.435428	-75.852939
0.692051	0.412951	-75.976572
0.692656	0.419026	-76.038389
0.693262	0.378931	-76.161750
0.693867	0.367389	-76.260711
0.694473	0.439073	-76.367805
0.695078	0.428746	-76.507976
0.695684	0.439681	-76.515026
0.696289	0.409306	-76.641099
0.696895	0.419634	-76.930117
0.697500	0.445756	-76.912765
0.698105	0.443933	-76.859083
0.698711	0.417204	-77.030162
0.699316	0.423279	-77.125869
0.699922	0.448186	-77.219136
0.700527	0.408091	-77.294238
0.701133	0.460943	-77.380997
0.701738	0.416596	-77.425733
0.702344	0.439681	-77.579461
0.702949	0.470663	-77.607115
0.703555	0.507720	-77.664323
0.704160	0.473701	-77.889356
0.704766	0.473093	-78.000788
0.705371	0.538703	-77.860075
0.705977	0.465803	-77.909961
0.706582	0.534450	-78.096766
0.707187	0.519870	-78.192473
0.707793	0.580620	-78.263508
0.708398	0.528983	-78.340778
0.709004	0.532020	-78.409644
0.709609	0.541133	-78.485288
0.710215	0.504075	-78.544393
0.710820	0.587910	-78.602685
0.711426	0.574545	-78.608649
0.712031	0.575152	-78.810095
0.712637	0.593985	-78.918274
0.713242	0.568470	-78.740416
0.713848	0.549638	-78.922612
0.714453	0.569685	-79.102909
0.715059	0.600667	-79.122159
0.715664	0.529590	-79.095047
0.716270	0.586087	-79.123786
0.716875	0.556928	-79.205666
0.717480	0.570292	-79.295950
0.718086	0.597022	-79.350717
0.718691	0.555713	-79.379457
0.719297	0.626790	-79.448051
0.719902	0.605527	-79.605574
0.720508	0.574545	-79.635940
0.721113	0.586695	-79.548096
0.721719	0.579405	-79.764182
0.722324	0.595807	-79.846062
0.722930	0.603705	-79.703993
0.723535	0.578797	-79.728665
0.724141	0.528375	-79.855009
0.724746	0.581227	-79.955596
0.725352	0.591555	-79.982709
0.725957	0.570900	-79.984335
0.726562	0.528983	-80.041814
0.727168	0.553283	-80.123693
0.727773	0.524730	-80.227805
0.728379	0.519870	-80.228076
0.728984	0.463373	-80.173309
0.729590	0.518048	-80.367163
0.730195	0.479776	-80.479138
0.730801	0.528375	-80.327850
0.731406	0.532628	-80.345473
0.732012	0.508328	-80.399969
0.732617	0.519870	-80.412983
0.733223	0.550853	-80.451483
0.733828	0.552675	-80.507606
0.734434	0.526553	-80.549088
0.735039	0.491318	-80.593823
0.735645	0.505898	-80.573489
0.736250	0.490103	-80.574574
0.736855	0.480383	-80.646150
0.737461	0.510758	-80.841089
0.738066	0.519263	-80.623105
0.738672	0.496178	-80.559119
0.739277	0.436036	-80.755685
0.739883	0.454261	-80.784153
0.740488	0.439073	-80.777917
0.741094	0.429353	-80.779273
0.741699	0.457298	-80.787677
0.742305	0.414166	-80.841089
0.742910	0.513795	-80.828346
0.743516	0.454261	-80.833498
0.744121	0.408699	-80.839733
0.744727	0.476738	-80.925680
0.745332	0.465196	-80.950352
0.745938	0.486458	-80.795811
0.746543	0.419634	-80.835395
0.747148	0.428138	-81.050126
0.747754	0.442111	-80.972042
0.748359	0.471271	-80.802860
0.748965	0.399586	-80.841360
0.749570	0.451831	-80.829973
0.750176	0.463981	-80.834853
0.750781	0.476738	-80.832413
0.751387	0.431783	-80.790931
0.751992	0.472486	-80.805301
0.752598	0.442111	-80.803945
0.753203	0.506505	-80.870913
0.753809	0.476738	-80.752160
0.754414	0.451223	-80.816959
0.755020	0.465803	-80.917275
0.755625	0.474308	-80.678957
0.756230	0.459121	-80.640457
0.756836	0.511365	-80.725861
0.757441	0.471271	-80.701460
0.758047	0.468841	-80.655098
0.758652	0.519263	-80.653200
0.759258	0.504075	-80.574574
0.759863	0.522300	-80.600330
0.760469	0.492533	-80.572676
0.761074	0.487066	-80.531736
0.761680	0.457298	-80.416779
0.762285	0.490711	-80.576200
0.762891	0.515618	-80.546919
0.763496	0.540525	-80.343847
0.764102	0.512580	-80.386142
0.764707	0.492533	-80.474800
0.765312	0.511973	-80.359843
0.765918	0.515618	-80.241361
0.766523	0.512580	-80.270372
0.767129	0.537488	-80.215605
0.767734	0.524123	-80.152704
0.768340	0.534450	-80.158940
0.768945	0.519870	-80.125591
0.769551	0.569685	-80.039374
0.770156	0.503468	-80.122880
0.770762	0.524730	-80.038289
0.771367	0.507113	-79.845520
0.771973	0.520478	-79.969695
0.772578	0.545993	-79.934991
0.773184	0.540525	-79.725140
0.773789	0.573937	-79.693690
0.774395	0.541133	-79.660613
0.775000	0.561180	-79.652479
0.775605	0.490711	-79.613979
0.776211	0.506505	-79.520984
0.776816	0.506505	-79.461878
0.777422	0.495570	-79.450762
0.778027	0.488888	-79.463776
0.778633	0.502253	-79.323334
0.779238	0.472486	-79.249046
0.779844	0.510150	-79.368069
0.780449	0.532020	-79.237930
0.781055	0.526553	-79.017776
0.781660	0.505898	-79.023199
0.782266	0.494355	-78.959213
0.782871	0.519870	-78.913393
0.783477	0.540525	-78.792743
0.784082	0.492533	-78.763462
0.784687	0.483421	-78.732553
0.785293	0.510758	-78.628984
0.785898	0.525945	-78.557407
0.786504	0.478561	-78.458446
0.787109	0.480383	-78.403408
0.787715	0.520478	-78.477154
0.788320	0.536273	-78.197625
0.788926	0.501645	-78.018140
0.789531	0.420241	-78.053929
0.790137	0.535058	-77.995637
0.790742	0.442718	-77.907521
0.791348	0.459121	-77.821033
0.791953	0.481598	-77.755420
0.792559	0.425708	-77.693875
0.793164	0.464588	-77.591390
0.793770	0.468841	-77.484567
0.794375	0.486458	-77.418684
0.794980	0.435428	-77.369339
0.795586	0.468233	-77.333822
0.796191	0.528375	-77.067577
0.796797	0.465196	-77.058088
0.797402	0.461551	-77.180365
0.798008	0.491318	-76.938522
0.798613	0.480991	-76.693697
0.799219	0.497393	-76.635134
0.799824	0.491925	-76.528311
0.800430	0.522908	-76.455107
0.801035	0.502253	-76.301922
0.801641	0.453046	-76.256915
0.802246	0.491925	-76.143856
0.802852	0.485851	-76.087733
0.803457	0.499823	-76.007480
0.804063	0.473093	-75.780820
0.804668	0.474308	-75.869207
0.805273	0.511973	-75.750183
0.805879	0.517440	-75.404499
0.806484	0.509543	-75.351088
0.807090	0.494355	-75.293609
0.807695	0.522908	-75.176213
0.808301	0.477953	-75.072101
0.808906	0.499215	-74.925965
0.809512	0.457906	-74.831071
0.810117	0.528983	-74.712861
0.810723	0.487066	-74.603869
0.811328	0.479168	-74.507891
0.811934	0.527160	-74.321086
0.812539	0.516833	-74.373413
0.813145	0.480991	-74.118285
0.813750	0.479168	-73.913043
0.814355	0.513795	-73.955881
0.814961	0.488888	-73.800527
0.815566	0.473093	-73.645172
0.816172	0.552068	-73.469483
0.816777	0.536880	-73.377030
0.817383	0.528983	-73.266682
0.817988	0.522300	-73.104821
0.818594	0.452438	-72.983086
0.819199	0.473701	-72.820140
0.819805	0.525338	-72.785165
0.820410	0.576367	-72.694338
0.821016	0.534450	-72.368718
0.821621	0.528983	-72.301208
0.822227	0.522300	-72.315035
0.822832	0.561787	-72.011376
0.823438	0.484028	-71.804508
0.824043	0.488281	-71.695244
0.824648	0.496785	-71.546397
0.825254	0.507720	-71.406497
0.825859	0.477346	-71.262530
0.826465	0.481598	-71.105548
0.827070	0.487066	-70.964564
0.827676	0.472486	-70.913321
0.828281	0.451223	-70.738175
0.828887	0.452438	-70.503381
0.829492	0.475523	-70.551641
0.830098	0.458513	-70.416079
0.830703	0.437251	-70.049789
0.831309	0.464588	-69.933477
0.831914	0.451831	-69.855393
0.832520	0.480991	-69.645543
0.833125	0.491318	-69.519741
0.833730	0.471878	-69.378214
0.834336	0.485243	-69.178124
0.834941	0.454261	-69.025752
0.835547	0.454868	-68.859824
0.836152	0.493748	-68.676815
0.836758	0.471878	-68.572974
0.837363	0.453653	-68.547759
0.837969	0.468841	-68.172252
0.838574	0.447578	-67.939898
0.839180	0.444541	-67.926342
0.839785	0.468841	-67.734386
0.840391	0.462158	-67.546225
0.840996	0.445148	-67.338273
0.841602	0.422671	-67.204066
0.842207	0.460943	-67.015092
0.842812	0.437251	-66.825847
0.843418	0.443326	-66.665884
0.844023	0.437251	-66.482061
0.844629	0.507113	-66.376865
0.845234	0.504683	-66.216631
0.845840	0.517440	-65.896432
0.846445	0.473701	-65.843563
0.847051	0.502860	-65.781204
0.847656	0.484636	-65.470496
0.848262	0.471271	-65.196389
0.848867	0.462766	-65.045915
0.849473	0.488281	-64.887036
0.850078	0.484636	-64.700773
0.850684	0.498000	-64.472215
0.851289	0.482206	-64.320114
0.851895	0.479776	-64.109179
0.852500	0.505898	-63.973888
0.853105	0.488281	-63.736654
0.853711	0.502860	-63.535209
0.854316	0.480383	-63.530057
0.854922	0.488888	-63.287672
0.855527	0.534450	-62.836792
0.856133	0.559358	-62.702585
0.856738	0.548423	-62.607420
0.857344	0.498608	-62.431189
0.857949	0.576367	-62.170639
0.858555	0.580620	-61.974345
0.859160	0.541740	-61.739551
0.859766	0.553890	-61.558440
0.860371	0.509543	-61.343709
0.860977	0.542348	-61.144975
0.861582	0.555105	-60.956272
0.862187	0.559965	-60.879544
0.862793	0.578797	-60.560430
0.863398	0.552068	-60.254059
0.864004	0.513188	-60.243757
0.864609	0.507720	-60.042853
0.865215	0.486458	-59.752750
0.865820	0.526553	-59.543171
0.866426	0.479168	-59.378598
0.867031	0.501038	-59.179864
0.867637	0.505290	-58.956728
0.868242	0.544170	-58.720850
0.868848	0.534450	-58.500155
0.869453	0.491925	-58.348867
0.870059	0.529590	-58.211949
0.870664	0.558750	-57.860843
0.871270	0.533235	-57.624693
0.871875	0.520478	-57.609239
0.872480	0.519263	-57.253795
0.873086	0.481598	-56.900520
0.873691	0.454868	-56.735134
0.874297	0.484028	-56.522030
0.874902	0.550853	-56.310824
0.875508	0.467626	-56.096906
0.876113	0.484028	-55.855606
0.876719	0.470056	-55.665818
0.877324	0.464588	-55.416384
0.877930	0.442111	-55.265639
0.878535	0.411129	-54.964690
0.879141	0.446971	-54.832924
0.879746	0.439073	-54.727727
0.880352	0.490103	-54.315076
0.880957	0.422671	-54.077571
0.881563	0.429961	-53.895917
0.882168	0.474916	-53.659226
0.882773	0.398979	-53.420094
0.883379	0.420241	-53.186113
0.883984	0.440896	-52.958911
0.884590	0.476131	-52.757736
0.885195	0.416596	-52.501795
0.885801	0.441503	-52.279202
0.886406	0.456083	-52.024073
0.887012	0.397764	-51.937314
0.887617	0.432391	-51.666460
0.888223	0.425708	-51.212326
0.888828	0.441503	-51.087609
0.889434	0.408699	-50.914361
0.890039	0.443326	-50.614226
0.890645	0.395941	-50.385939
0.891250	0.420241	-50.166057
0.891855	0.406269	-49.925298
0.892461	0.445148	-49.626790
0.893066	0.468233	-49.389827
0.893672	0.442718	-49.128192
0.894277	0.465803	-48.912919
0.894883	0.447578	-48.733706
0.895488	0.492533	-48.398867
0.896094	0.430568	-48.074602
0.896699	0.422671	-48.046405
0.897305	0.488281	-47.787752
0.897910	0.473701	-47.343108
0.898516	0.479168	-47.100723
0.899121	0.451223	-46.869996
0.899727	0.422671	-46.673430
0.900332	0.450008	-46.383327
0.900937	0.446363	-46.147720
0.901543	0.432391	-45.884458
0.902148	0.446363	-45.598150
0.902754	0.440288	-45.388300
0.903359	0.469448	-45.116091
0.903965	0.454868	-44.890515
0.904570	0.491318	-44.763087
0.905176	0.528983	-44.355586
0.905781	0.481598	-43.950526
0.906387	0.487066	-43.780260
0.906992	0.453046	-43.666659
0.907598	0.506505	-43.331820
0.908203	0.482813	-43.037379
0.908809	0.510150	-42.781980
0.909414	0.517440	-42.519260
0.910020	0.485851	-42.267385
0.910625	0.500430	-41.964810
0.911230	0.505898	-41.633767
0.911836	0.516833	-41.485462
0.912441	0.474916	-41.328481
0.913047	0.552675	-40.903086
0.913652	0.521085	-40.596987
0.914258	0.488888	-40.491790
0.914863	0.470663	-40.187046
0.915469	0.482206	-39.879049
0.916074	0.468841	-39.588132
0.916680	0.475523	-39.406750
0.917285	0.525338	-39.078960
0.917891	0.495570	-38.785875
0.918496	0.485243	-38.522342
0.919102	0.487066	-38.300291
0.919707	0.482813	-38.099659
0.920312	0.525945	-37.811453
0.920918	0.503468	-37.392566
0.921523	0.541133	-37.197898
0.922129	0.525338	-37.042815
0.922734	0.533235	-36.620132
0.923340	0.528983	-36.269297
0.923945	0.557535	-35.997359
0.924551	0.548423	-35.748466
0.925156	0.513188	-35.491169
0.925762	0.516225	-35.180732
0.926367	0.521693	-34.935635
0.926973	0.488281	-34.646616
0.927578	0.530198	-34.386065
0.928184	0.534450	-34.166183
0.928789	0.531413	-33.776035
0.929395	0.533843	-33.677617
0.930000	0.515618	-33.465326
0.930605	0.550853	-32.946394
0.931211	0.512580	-32.675270
0.931816	0.529590	-32.481687
0.932422	0.519870	-32.139799
0.933027	0.505290	-31.869487
0.933633	0.484028	-31.603514
0.934238	0.472486	-31.341337
0.934844	0.471878	-31.036322
0.935449	0.513795	-30.748930
0.936055	0.463373	-30.439305
0.936660	0.466411	-30.204240
0.937266	0.517440	-30.063527
0.937871	0.460336	-29.657924
0.938477	0.468233	-29.217076
0.939082	0.444541	-29.051148
0.939688	0.446971	-28.826928
0.940293	0.469448	-28.484226
0.940898	0.464588	-28.158334
0.941504	0.450008	-27.905104
0.942109	0.453046	-27.596564
0.942715	0.400194	-27.306190
0.943320	0.395941	-27.042657
0.943926	0.431783	-26.719205
0.944531	0.414166	-26.476007
0.945137	0.453046	-26.234977
0.945742	0.417811	-25.811209
0.946348	0.457906	-25.501856
0.946953	0.462766	-25.421603
0.947559	0.470663	-25.123095
0.948164	0.456691	-24.626395
0.948770	0.438466	-24.303214
0.949375	0.463981	-24.058931
0.949980	0.463981	-23.817359
0.950586	0.423279	-23.496619
0.951191	0.443326	-23.190790
0.951797	0.392904	-22.899874
0.952402	0.424493	-22.689752
0.953008	0.448186	-22.380128
0.953613	0.392296	-22.051254
0.954219	0.426923	-21.847910
0.954824	0.402624	-21.609050
0.955430	0.411736	-21.083339
0.956035	0.367389	-20.757990
0.956641	0.463373	-20.574167
0.957246	0.447578	-20.319852
0.957852	0.443326	-19.936482
0.958457	0.498608	-19.642854
0.959063	0.487066	-19.334857
0.959668	0.434213	-19.043398
0.960273	0.497393	-18.742450
0.960879	0.453046	-18.402460
0.961484	0.456691	-18.118321
0.962090	0.493748	-17.878105
0.962695	0.484636	-17.643582
0.963301	0.491318	-17.114347
0.963906	0.436643	-16.913986
0.964512	0.492533	-16.680548
0.965117	0.477346	-16.319952
0.965723	0.460336	-16.059672
0.966328	0.488888	-15.674404
0.966934	0.489496	-15.425783
0.967539	0.465803	-15.124835
0.968145	0.468841	-14.813313
0.968750	0.529590	-14.481456
0.969355	0.515010	-14.251272
0.969961	0.518655	-14.012140
0.970566	0.472486	-13.635005
0.971172	0.515618	-13.204731
0.971777	0.531413	-13.046123
0.972383	0.540525	-12.779879
0.972988	0.538703	-12.297548
0.973594	0.580620	-11.957558
0.974199	0.544778	-11.724391
0.974805	0.512580	-11.412869
0.975410	0.522908	-11.115174
0.976016	0.566647	-10.806634
0.976621	0.550853	-10.503246
0.977227	0.528983	-10.233748
0.977832	0.515618	-9.927919
0.978437	0.520478	-9.560546
0.979043	0.518048	-9.300266
0.979648	0.570900	-9.179344
0.980254	0.542348	-8.738496
0.980859	0.519870	-8.290327
0.981465	0.520478	-8.078850
0.982070	0.538095	-7.792271
0.982676	0.521693	-7.487256
0.983281	0.489496	-7.166516
0.983887	0.493140	-6.827881
0.984492	0.498000	-6.560010
0.985098	0.536880	-6.201041
0.985703	0.523515	-5.933984
0.986309	0.500430	-5.583962
0.986914	0.484028	-5.394988
0.987520	0.498608	-5.201676
0.988125	0.489496	-4.698198
0.988730	0.477953	-4.348447
0.989336	0.496785	-4.142121
0.989941	0.499215	-3.779899
0.990547	0.454261	-3.495489
0.991152	0.443933	-3.223822
0.991758	0.471271	-2.913927
0.992363	0.490103	-2.557398
0.992969	0.467018	-2.300914
0.993574	0.419634	-1.978276
0.994180	0.434821	-1.668923
0.994785	0.449401	-1.443619
0.995391	0.427531	-1.117185
0.995996	0.500430	-0.658442
0.996602	0.451223	-0.518271
0.997207	0.473093	-0.300829
0.997812	0.484028	0.198312
0.998418	0.456083	0.521221
0.999023	0.423886	0.798581
0.999629	0.453653	1.100885
1.000234	0.419026	1.391531
1.000840	0.424493	1.700613
1.001445	0.444541	2.018913
1.002051	0.426923	2.314168
1.002656	0.436036	2.543810
1.003262	0.372249	2.855875
1.003867	0.406269	3.230569
1.004473	0.383791	3.407071
1.005078	0.407484	3.685245
1.005684	0.373464	4.256775
1.006289	0.347949	4.510005
1.006895	0.385006	4.751849
1.007500	0.403231	5.095363
1.008105	0.417811	5.411766
1.008711	0.366781	5.735760
1.009316	0.388651	6.002275
1.009922	0.400194	6.302681
1.010527	0.398371	6.610679
1.011133	0.389866	6.997573
1.011738	0.386221	7.270867
1.012344	0.406269	7.415918
1.012949	0.412951	7.798475
1.013555	0.374071	8.291108
1.014160	0.363136	8.446463
1.014766	0.392296	8.727077
1.015371	0.365566	9.083606
1.015977	0.378931	9.400821
1.016582	0.391689	9.658661
1.017187	0.361921	9.962320
1.017793	0.409306	10.270047
1.018398	0.374679	10.580755
1.019004	0.337622	10.909087
1.019609	0.375894	11.176958
1.020215	0.410521	11.389249
1.020820	0.395941	11.834978
1.021426	0.405661	12.180932
1.022031	0.436643	12.277995
1.022637	0.419634	12.676819
1.023242	0.399586	13.116312
1.023848	0.433606	13.409127
1.024453	0.389259	13.653410
1.025059	0.393511	13.979573
1.025664	0.403231	14.282961
1.026270	0.411129	14.543512
1.026875	0.403839	14.839038
1.027480	0.431176	15.120736
1.028086	0.429353	15.474282
1.028691	0.439681	15.861991
1.029297	0.426923	16.101394
1.029902	0.462766	16.217706
1.030508	0.480991	16.681600
1.031113	0.473701	17.066868
1.031719	0.513795	17.353447
1.032324	0.541740	17.628638
1.032930	0.471271	17.933111
1.033535	0.521693	18.261714
1.034141	0.494355	18.510606
1.034746	0.476738	18.792847
1.035352	0.488888	19.113858
1.035957	0.501038	19.377120
1.036563	0.535665	19.736632
1.037168	0.519263	19.883852
1.037773	0.496178	20.174227
1.038379	0.470663	20.701293
1.038984	0.456691	20.965910
1.039590	0.484028	21.152986
1.040195	0.484636	21.469660
1.040801	0.461551	21.802872
1.041406	0.430568	22.078063
1.042012	0.474308	22.349188
1.042617	0.471271	22.642816
1.043223	0.480383	22.967352
1.043828	0.468841	23.260980
1.044434	0.453653	23.557590
1.045039	0.419634	23.740057
1.045645	0.401409	24.113124
1.046250	0.476131	24.516558
1.046855	0.495570	24.630972
1.047461	0.481598	24.845703
1.048066	0.415381	25.298210
1.048672	0.496178	25.685918
1.049277	0.425708	25.912036
1.049883	0.417811	26.143847
1.050488	0.470056	26.474348
1.051094	0.448186	26.795088
1.051699	0.401409	27.060790
1.052305	0.367389	27.300464
1.052910	0.427531	27.563455
1.053516	0.418419	27.873893
1.054121	0.391081	28.142848
1.054727	0.355847	28.280851
1.055332	0.398371	28.755319
1.055937	0.396549	29.148992
1.056543	0.402016	29.318173
1.057148	0.396549	29.573844
1.057754	0.401409	29.875334
1.058359	0.392904	30.251655
1.058965	0.462158	30.453101
1.059570	0.426923	30.741577
1.060176	0.460336	30.986674
1.060781	0.465196	31.330731
1.061387	0.455476	31.632764
1.061992	0.453653	31.826076
1.062598	0.448793	32.053007
1.063203	0.456083	32.506869
1.063809	0.422064	32.761997
1.064414	0.361314	32.940126
1.065020	0.401409	33.246226
1.065625	0.426316	33.556392
1.066230	0.451831	33.868999
1.066836	0.395941	34.088881
1.067441	0.453046	34.411790
1.068047	0.436036	34.689964
1.068652	0.448793	34.944279
1.069258	0.453046	35.186393
1.069863	0.467018	35.392990
1.070469	0.475523	35.745723
1.071074	0.441503	36.152952
1.071680	0.476738	36.238628
1.072285	0.476738	36.520868
1.072891	0.460943	36.979340
1.073496	0.467626	37.252362
1.074102	0.465196	37.480649
1.074707	0.481598	37.750960
1.075312	0.436643	37.987652
1.075918	0.506505	38.291041
1.076523	0.480383	38.549693
1.077129	0.477953	38.771202
1.077734	0.495570	39.155114
1.078340	0.481598	39.392891
1.078945	0.533843	39.620906
1.079551	0.494355	39.713089
1.080156	0.488281	40.083716
1.080762	0.510150	40.477389
1.081367	0.482813	40.684528
1.081973	0.504075	40.948603
1.082578	0.480383	41.221355
1.083184	0.469448	41.517152
1.083789	0.496785	41.720766
1.084395	0.474916	41.993246
1.085000	0.514403	42.236987
1.085605	0.498000	42.509739
1.086211	0.485243	42.811500
1.086816	0.495570	42.952214
1.087422	0.509543	43.120853
1.088027	0.454261	43.608878
1.088633	0.514403	43.870784
1.089238	0.466411	44.014209
1.089844	0.380146	44.240598
1.090449	0.460943	44.580859
1.091055	0.437251	44.786371
1.091660	0.388651	45.039602
1.092266	0.453653	45.324283
1.092871	0.482206	45.565312
1.093477	0.414774	45.843486
1.094082	0.415989	46.019446
1.094688	0.414166	46.175343
1.095293	0.437251	46.487678
1.095898	0.434213	46.881622
1.096504	0.396549	47.013660
1.097109	0.397156	47.089846
1.097715	0.383184	47.479994
1.098320	0.401409	47.842487
1.098926	0.378324	48.087042
1.099531	0.352202	48.244565
1.100137	0.349164	48.494000
1.100742	0.400801	48.777596
1.101348	0.402624	49.007239
1.101953	0.365566	49.258029
1.102559	0.364959	49.517495
1.103164	0.384399	49.740902
1.103770	0.386829	49.978136
1.104375	0.315144	50.031005
1.104980	0.367996	50.398379
1.105586	0.359491	50.825400
1.106191	0.331547	50.943339
1.106797	0.367996	51.121739
1.107402	0.347949	51.412384
1.108008	0.354632	51.657752
1.108613	0.344912	51.892546
1.109219	0.329724	52.082876
1.109824	0.380754	52.356440
1.110430	0.340659	52.550023
1.111035	0.389866	52.868866
1.111641	0.351594	53.064889
1.112246	0.380146	53.141888
1.112852	0.381969	53.467780
1.113457	0.381361	53.844372
1.114062	0.332154	53.911882
1.114668	0.341267	54.104922
1.115273	0.322434	54.443286
1.115879	0.326687	54.700854
1.116484	0.350987	54.875187
1.117090	0.300564	55.066059
1.117695	0.317574	55.293261
1.118301	0.378931	55.557066
1.118906	0.362529	55.814634
1.119512	0.385006	55.902207
1.120117	0.422671	56.118022
1.120723	0.387436	56.457199
1.121328	0.411736	56.585441
1.121934	0.430568	56.760587
1.122539	0.441503	57.142873
1.123145	0.424493	57.360857
1.123750	0.397764	57.563387
1.124355	0.462158	57.726604
1.124961	0.385614	57.956789
1.125566	0.403231	58.163657
1.126172	0.429353	58.401976
1.126777	0.425708	58.599083
1.127383	0.462766	58.773687
1.127988	0.408699	59.059453
1.128594	0.446363	59.284215
1.129199	0.415381	59.276352
1.129805	0.445756	59.547477
1.130410	0.414166	59.935727
1.131016	0.413559	60.060716
1.131621	0.453653	60.232337
1.132227	0.467018	60.471469
1.132832	0.436036	60.700570
1.133438	0.438466	60.877614
1.134043	0.438466	61.041644
1.134648	0.425101	61.258002
1.135254	0.450616	61.496862
1.135859	0.476738	61.726234
1.136465	0.456691	61.827905
1.137070	0.431783	61.885113
1.137676	0.473701	62.294240
1.138281	0.405661	62.532016
1.138887	0.428746	62.554519
1.139492	0.431783	62.803683
1.140098	0.441503	63.010008
1.140703	0.426316	63.214436
1.141309	0.419634	63.359217
1.141914	0.388651	63.555511
1.142520	0.396549	63.782442
1.143125	0.417204	63.951895
1.143730	0.408091	64.128940
1.144336	0.430568	64.236305
1.144941	0.405661	64.390304
1.145547	0.403231	64.801057
1.146152	0.394726	64.839015
1.146758	0.411736	64.896764
1.147363	0.388044	65.119900
1.147969	0.409306	65.394007
1.148574	0.392904	65.578643
1.149180	0.400194	65.745926
1.149785	0.398979	65.913210
1.150391	0.373464	66.103811
1.150996	0.381969	66.258352
1.151602	0.378324	66.464406
1.152207	0.420241	66.604578
1.152813	0.371641	66.800330
1.153418	0.377716	66.981983
1.154023	0.357061	66.929656
1.154629	0.402016	67.201594
1.155234	0.343697	67.565985
1.155840	0.377109	67.705615
1.156445	0.389259	67.741132
1.157051	0.332154	67.886184
1.157656	0.360099	68.117453
1.158262	0.360706	68.306427
1.158867	0.340659	68.427077
1.159473	0.385614	68.604664
1.160078	0.447578	68.749986
1.160684	0.354632	68.941129
1.161289	0.361314	69.034396
1.161895	0.364959	69.112209
1.162500	0.387436	69.416953
1.163105	0.391689	69.629786
1.163711	0.344304	69.532452
1.164316	0.380146	69.786496
1.164922	0.387436	69.984688
1.165527	0.363744	70.197792
1.166133	0.399586	70.332812
1.166738	0.394726	70.433128
1.167344	0.412951	70.584144
1.167949	0.390474	70.773118
1.168555	0.375286	70.916543
1.169160	0.437251	71.063492
1.169766	0.440896	71.128020
1.170371	0.471271	71.370948
1.170977	0.412951	71.492954
1.171582	0.422064	71.423003
1.172187	0.478561	71.777363
1.172793	0.482813	71.993992
1.173398	0.410521	72.033576
1.174004	0.448793	72.179441
1.174609	0.473093	72.332626
1.175215	0.480383	72.476865
1.175820	0.464588	72.607004
1.176426	0.478561	72.682377
1.177031	0.403231	72.858879
1.177637	0.462158	72.993357
1.178242	0.481598	73.195887
1.178848	0.411736	73.147898
1.179453	0.412951	73.151694
1.180059	0.460943	73.499004
1.180664	0.393511	73.644327
1.181270	0.398371	73.690418
1.181875	0.442718	73.835470
1.182480	0.402016	73.937141
1.183086	0.443326	74.061316
1.183691	0.426316	74.173020
1.184297	0.415989	74.291501
1.184902	0.422064	74.391275
1.185508	0.434213	74.543918
1.186113	0.429353	74.620646
1.186719	0.437251	74.584316
1.187324	0.457298	74.764342
1.187930	0.435428	75.063935
1.188535	0.398371	75.055530
1.189141	0.421456	75.082914
1.189746	0.380754	75.276497
1.190352	0.395941	75.412330
1.190957	0.378324	75.477671
1.191563	0.356454	75.567956
1.192168	0.356454	75.717074
1.192773	0.352202	75.802478
1.193379	0.346734	75.893576
1.193984	0.353417	75.954850
1.194590	0.334584	76.027512
1.195195	0.355847	76.197236
1.195801	0.394119	76.343372
1.196406	0.371034	76.219468
1.197012	0.377109	76.326291
1.197617	0.322434	76.570574
1.198223	0.311499	76.636186
1.198828	0.379539	76.784763
1.199434	0.356454	76.808893
1.200039	0.348557	76.886434
1.200645	0.324257	76.955300
1.201250	0.301172	77.095200
1.201855	0.307247	77.142105
1.202461	0.293882	77.178707
1.203066	0.278695	77.333519
1.203672	0.300564	77.350057
1.204277	0.327294	77.316709
1.204883	0.321827	77.580784
1.205488	0.327902	77.765149
1.206094	0.355847	77.789008
1.206699	0.282340	77.792533
1.207305	0.293882	77.878750
1.207910	0.285985	77.998858
1.208516	0.334584	78.082365
1.209121	0.266545	78.091041
1.209727	0.279302	78.178614
1.210332	0.283555	78.272423
1.210937	0.306639	78.342915
1.211543	0.274442	78.428591
1.212148	0.318182	78.346711
1.212754	0.298134	78.645219
1.213359	0.261077	78.672874
1.213965	0.282340	78.564153
1.214570	0.307854	78.733335
1.215176	0.281125	78.821993
1.215781	0.284770	78.877302
1.216387	0.278695	78.877844
1.216992	0.264115	78.958910
1.217598	0.278695	79.031030
1.218203	0.310284	79.106944
1.218809	0.327294	79.131888
1.219414	0.308462	79.191806
1.220020	0.332762	79.212954
1.220625	0.336407	79.369935
1.221230	0.346127	79.245218
1.221836	0.383184	79.257961
1.222441	0.366781	79.559722
1.223047	0.307247	79.546166
1.223652	0.413559	79.576532
1.224258	0.341874	79.576803
1.224863	0.381969	79.616387
1.225469	0.367996	79.732158
1.226074	0.387436	79.742732
1.226680	0.410521	79.772555
1.227285	0.374071	79.791534
1.227891	0.398371	79.864466
1.228496	0.401409	79.924114
1.229102	0.400194	79.784485
1.229707	0.394726	79.846843
1.230312	0.428138	80.064014
1.230918	0.417204	80.021990
1.231523	0.456083	79.968578
1.232129	0.416596	80.055067
1.232734	0.431176	80.092211
1.233340	0.411129	80.110919
1.233945	0.442718	80.100887
1.234551	0.457906	80.157823
1.235156	0.476131	80.207439
1.235762	0.485243	80.254886
1.236367	0.473701	80.174633
1.236973	0.474916	80.085704
1.237578	0.462158	80.315347
1.238184	0.432998	80.338121
1.238789	0.436643	80.208524
1.239395	0.461551	80.282541
