LabVIEW Measurement	
Writer_Version	2
Reader_Version	2
Separator	Tab
Decimal_Separator	.
Multi_Headings	No
X_Columns	One
Time_Pref	Absolute
Operator	AlunosGDS-JT
Date	2019/10/09
Time	15:19:08.4651639249999940857
***End_of_Header***	
	
Channels	2		
Samples	2048	2048	
Date	2019/10/09	2019/10/09	
Time	15:27:50.7297928312499903634	15:27:50.7297928312499903634	
Y_Unit_Label	g	Newtons	
X_Dimension	Time	Time	
X0	0.0000000000000000E+0	0.0000000000000000E+0	
Delta_X	0.000605	0.000605	
***End_of_Header***			
X_Value	Acceleration (Trigger)	Force (Trigger)	Comment
0.000000	8.209549	6.321931
0.000605	5.311187	15.023402
0.001211	2.360582	23.709420
0.001816	-0.591239	32.188027
0.002422	-3.522405	40.573638
0.003027	-6.503385	48.529246
0.003633	-9.339174	56.109346
0.004238	-12.249685	63.657996
0.004844	-15.035052	70.568419
0.005449	-17.731725	76.951775
0.006055	-20.289281	83.054247
0.006660	-22.670663	88.591695
0.007266	-25.008306	93.454043
0.007871	-27.058604	97.834060
0.008477	-29.080349	101.469027
0.009082	-30.844516	104.490710
0.009687	-32.476856	106.848680
0.010293	-33.866806	108.519078
0.010898	-35.011935	109.451476
0.011504	-35.910421	109.831864
0.012109	-36.664930	109.353058
0.012715	-37.105364	108.100191
0.013320	-37.313735	106.512757
0.013926	-37.363550	104.095681
0.014531	-37.075597	100.862250
0.015137	-36.634555	97.117478
0.015742	-35.906776	92.764031
0.016348	-34.922633	87.836071
0.016953	-33.762317	82.361524
0.017559	-32.291570	76.387836
0.018164	-30.641612	69.918804
0.018770	-28.819733	63.010008
0.019375	-26.862382	55.628914
0.019980	-24.706381	47.873396
0.020586	-22.385748	40.084801
0.021191	-19.963056	31.862135
0.021797	-17.377555	23.155512
0.022402	-14.615273	14.739535
0.023008	-11.866356	6.104489
0.023613	-8.963135	-2.628162
0.024219	-6.051409	-11.332345
0.024824	-3.115383	-20.015922
0.025430	-0.105243	-28.524624
0.026035	2.816203	-36.955784
0.026641	5.735827	-45.080302
0.027246	8.670638	-52.990904
0.027852	11.555634	-60.499156
0.028457	14.401143	-67.629189
0.029062	17.136088	-74.522802
0.029668	19.755608	-80.522518
0.030273	22.220825	-86.181972
0.030879	24.571225	-91.460767
0.031484	26.747882	-96.078831
0.032090	28.773879	-99.960522
0.032695	30.624918	-103.308368
0.033301	32.293708	-105.974335
0.033906	33.775997	-107.918569
0.034512	35.003746	-109.144052
0.035117	36.077190	-109.727241
0.035723	36.818942	-109.578123
0.036328	37.410643	-108.814636
0.036934	37.659109	-107.179755
0.037539	37.714998	-104.902038
0.038145	37.570414	-102.204348
0.038750	37.107503	-98.507023
0.039355	36.490895	-94.195600
0.039961	35.621569	-89.491860
0.040566	34.586396	-84.183513
0.041172	33.126584	-78.253205
0.041777	31.572611	-71.866866
0.042383	29.850361	-64.995757
0.042988	27.873571	-57.715520
0.043594	25.733364	-50.100987
0.044199	23.513575	-42.138872
0.044805	21.055649	-33.891805
0.045410	18.575244	-25.594581
0.046016	15.894974	-16.778966
0.046621	13.169142	-8.011340
0.047227	10.361905	0.619368
0.047832	7.414337	9.438508
0.048438	4.467376	18.154349
0.049043	1.491256	26.696941
0.049648	-1.452668	35.132982
0.050254	-4.443976	43.368661
0.050859	-7.322289	51.314509
0.051465	-10.228548	58.914130
0.052070	-13.019382	66.089983
0.052676	-15.823582	72.823091
0.053281	-18.454645	79.267721
0.053887	-21.012808	85.137839
0.054492	-23.420920	90.117313
0.055098	-25.723936	95.043646
0.055703	-27.797318	99.242823
0.056309	-29.712144	102.638658
0.056914	-31.382149	105.366984
0.057520	-32.910608	107.504259
0.058125	-34.213686	108.969959
0.058730	-35.301103	109.672171
0.059336	-36.200196	109.645872
0.059941	-36.856899	109.019303
0.060547	-37.253593	107.708687
0.061152	-37.427944	105.569514
0.061758	-37.272426	102.847424
0.062363	-36.967463	99.664693
0.062969	-36.411604	95.735556
0.063574	-35.627328	90.935295
0.064180	-34.543556	85.832460
0.064785	-33.225898	80.340832
0.065391	-31.869968	74.152143
0.065996	-30.117951	67.430152
0.066602	-28.290604	60.320182
0.067207	-26.241522	52.924446
0.067812	-24.022948	45.180044
0.068418	-21.606939	37.092128
0.069023	-19.078542	28.733900
0.069629	-16.480892	20.339613
0.070234	-13.786042	11.640581
0.070840	-10.964225	2.792160
0.071445	-8.063434	-5.665299
0.072051	-5.217317	-14.406084
0.072656	-2.246057	-23.150935
0.073262	0.777448	-31.612732
0.073867	3.749316	-39.896130
0.074473	6.749737	-47.920874
0.075078	9.602536	-55.676121
0.075684	12.445007	-63.110356
0.076289	15.247992	-70.086391
0.076895	17.852932	-76.640827
0.077500	20.486425	-82.720796
0.078105	22.962577	-88.308130
0.078711	25.285032	-93.086430
0.079316	27.352340	-97.561069
0.079922	29.381375	-101.450351
0.080527	31.194141	-104.380123
0.081133	32.783957	-106.710710
0.081738	34.121055	-108.467868
0.082344	35.241276	-109.546130
0.082949	36.205372	-109.847350
0.083555	36.937404	-109.357699
0.084160	37.433120	-108.283503
0.084766	37.634201	-106.515771
0.085371	37.616584	-104.014918
0.085977	37.414288	-100.798296
0.086582	36.896094	-97.159805
0.087188	36.169530	-92.861125
0.087793	35.161694	-87.633030
0.088398	33.918759	-82.054914
0.089004	32.570119	-76.136807
0.089609	30.951751	-69.550107
0.090215	29.275063	-62.431461
0.090820	27.188923	-55.058771
0.091426	25.047502	-47.294034
0.092031	22.771216	-39.267934
0.092637	20.307214	-30.917027
0.093242	17.632411	-22.404800
0.093848	14.955786	-13.787106
0.094453	12.229346	-5.107325
0.095059	9.344958	3.770378
0.095664	6.377950	12.546951
0.096270	3.553095	20.977298
0.096875	0.577582	29.631051
0.097480	-2.402183	38.185302
0.098086	-5.377696	46.290842
0.098691	-8.299142	54.013282
0.099297	-11.191428	61.486560
0.099902	-14.019320	68.569417
0.100508	-16.704450	75.234201
0.101113	-19.361028	81.333962
0.101719	-21.863909	86.991518
0.102324	-24.131690	92.133395
0.102930	-26.401293	96.562486
0.103535	-28.323409	100.271469
0.104141	-30.164121	103.709329
0.104746	-31.873613	106.312125
0.105352	-33.362584	108.006111
0.105957	-34.571501	109.238101
0.106563	-35.476061	109.774927
0.107168	-36.321088	109.584327
0.107773	-36.892133	108.643796
0.108379	-37.229901	107.031418
0.108984	-37.232331	104.769155
0.109590	-37.087747	101.858904
0.110195	-36.677687	98.278975
0.110801	-36.008835	94.066784
0.111406	-35.091517	89.397206
0.112012	-33.980407	84.036260
0.112617	-32.622047	78.017295
0.113223	-31.108169	71.801764
0.113828	-29.393209	65.093872
0.114434	-27.410343	57.767815
0.115039	-25.400748	50.217267
0.115645	-23.097733	42.373905
0.116250	-20.768595	34.191908
0.116855	-18.151504	25.785149
0.117461	-15.537451	17.248522
0.118066	-12.783066	8.587719
0.118672	-9.874985	-0.108601
0.119277	-7.022794	-8.849928
0.119883	-4.101348	-17.687504
0.120488	-1.117330	-26.125171
0.121094	1.814443	-34.532744
0.121699	4.727992	-42.927031
0.122305	7.676167	-50.808351
0.122910	10.567846	-58.358899
0.123516	13.467422	-65.611480
0.124121	16.201759	-72.500755
0.124727	18.893572	-78.845612
0.125332	21.409819	-84.697836
0.125938	23.762041	-90.080200
0.126543	25.984260	-94.833827
0.127148	28.036380	-98.980406
0.127754	29.912933	-102.481438
0.128359	31.625463	-105.359425
0.128965	33.232896	-107.634431
0.129570	34.494057	-108.903565
0.130176	35.566286	-109.652411
0.130781	36.400985	-109.807223
0.131387	37.025491	-109.197735
0.131992	37.382091	-107.795479
0.132598	37.510272	-105.780481
0.133203	37.451345	-103.047546
0.133809	37.089278	-99.686686
0.134414	36.526737	-95.654792
0.135020	35.681103	-91.060045
0.135625	34.685418	-85.864756
0.136230	33.410892	-80.226179
0.136836	31.939538	-73.852040
0.137441	30.209999	-67.173158
0.138047	28.361390	-60.153743
0.138652	26.250950	-52.371926
0.139258	24.096164	-44.468645
0.139863	21.722679	-36.407570
0.140469	19.304239	-28.009487
0.141074	16.659204	-19.427310
0.141680	13.932156	-10.694660
0.142285	11.185062	-1.975565
0.142891	8.287308	6.815920
0.143496	5.377404	15.545859
0.144102	2.387312	24.142677
0.144707	-0.512872	32.587936
0.145313	-3.523012	40.814126
0.145918	-6.415906	49.072037
0.146523	-9.314267	56.645360
0.147129	-12.050427	63.836667
0.147734	-14.864346	70.920881
0.148340	-17.563449	77.469081
0.148945	-20.139230	83.394237
0.149551	-22.646971	88.790429
0.150156	-24.878910	93.693446
0.150762	-27.006966	98.006766
0.151367	-28.952167	101.655560
0.151973	-30.647080	104.634677
0.152578	-32.312832	106.972584
0.153184	-33.711894	108.683922
0.153789	-34.816929	109.424363
0.154395	-35.782847	109.631231
0.155000	-36.501514	109.421923
0.155605	-36.975968	108.266390
0.156211	-37.194059	106.315649
0.156816	-37.074990	103.861159
0.157422	-36.870871	100.738075
0.158027	-36.327163	96.965377
0.158633	-35.581158	92.502395
0.159238	-34.638325	87.545967
0.159844	-33.463429	82.071149
0.160449	-32.084414	76.070892
0.161055	-30.413801	69.447590
0.161660	-28.622297	62.435224
0.162266	-26.633357	55.329863
0.162871	-24.499832	47.478096
0.163477	-22.074710	39.364152
0.164082	-19.661738	31.303076
0.164687	-17.140632	22.872187
0.165293	-14.439707	14.232261
0.165898	-11.695042	5.516149
0.166504	-8.801541	-3.173664
0.167109	-5.934770	-11.918245
0.167715	-2.995706	-20.616192
0.168320	0.013827	-29.136281
0.168926	3.011817	-37.537346
0.169531	5.992190	-45.577274
0.170137	8.833446	-53.534508
0.170742	11.709938	-61.080718
0.171348	14.521427	-67.976500
0.171953	17.177397	-74.768441
0.172559	19.859490	-81.028165
0.173164	22.387279	-86.678130
0.173770	24.724922	-91.766053
0.174375	26.904615	-96.331790
0.174980	28.856499	-100.275297
0.175586	30.730015	-103.570545
0.176191	32.302821	-106.202622
0.176797	33.686695	-108.139807
0.177402	34.958183	-109.406230
0.178008	35.959944	-109.947395
0.178613	36.753940	-109.607675
0.179219	37.281246	-108.797555
0.179824	37.535787	-107.397739
0.180430	37.637846	-104.941351
0.181035	37.389988	-101.932682
0.181641	37.010911	-98.342992
0.182246	36.278271	-94.218375
0.182852	35.380393	-89.429502
0.183457	34.245591	-83.959293
0.184062	32.870829	-78.038474
0.184668	31.351483	-71.655660
0.185273	29.607970	-64.731681
0.185879	27.674920	-57.402913
0.186484	25.518311	-49.834743
0.187090	23.313102	-41.890793
0.187695	20.813258	-33.472918
0.188301	18.262992	-25.138007
0.188906	15.573002	-16.579689
0.189512	12.884834	-7.728557
0.190117	10.017455	1.038798
0.190723	7.122739	9.789343
0.191328	4.192181	18.523620
0.191934	1.211200	27.084107
0.192539	-1.697488	35.579795
0.193145	-4.665104	43.763419
0.193750	-7.692254	51.613017
0.194355	-10.473369	59.199082
0.194961	-13.337102	66.449766
0.195566	-16.072655	73.086624
0.196172	-18.651473	79.447206
0.196777	-21.175009	85.381038
0.197383	-23.657844	90.576869
0.197988	-25.843005	95.197102
0.198594	-27.930967	99.265597
0.199199	-29.815418	102.731654
0.199805	-31.485423	105.466487
0.200410	-33.094679	107.506157
0.201016	-34.335792	108.917360
0.201621	-35.381292	109.637467
0.202227	-36.265806	109.657802
0.202832	-36.856291	108.883199
0.203437	-37.186769	107.462235
0.204043	-37.385420	105.556500
0.204648	-37.245696	102.736263
0.205254	-36.914611	99.191309
0.205859	-36.325340	95.410477
0.206465	-35.444472	90.824134
0.207070	-34.364345	85.695271
0.207676	-33.082529	79.988913
0.208281	-31.592343	73.806731
0.208887	-29.854905	67.102905
0.209492	-27.985642	60.017607
0.210098	-25.985766	52.518302
0.210703	-23.745323	44.769291
0.211309	-21.358473	36.765152
0.211914	-18.812459	28.323689
0.212520	-16.160134	19.713044
0.213125	-13.403927	11.333397
0.213730	-10.620990	2.621894
0.214336	-7.735994	-6.222731
0.214941	-4.818193	-14.912815
0.215547	-1.876092	-23.525629
0.216152	1.110963	-32.038669
0.216758	4.116244	-40.327218
0.217363	7.036475	-48.385853
0.217969	10.019885	-56.051358
0.218574	12.849599	-63.428386
0.219180	15.644686	-70.460001
0.219785	18.389958	-77.056461
0.220391	20.862465	-82.987311
0.220996	23.329504	-88.480023
0.221602	25.591818	-93.601566
0.222207	27.784876	-97.780409
0.222812	29.733115	-101.462823
0.223418	31.533731	-104.532766
0.224023	33.118687	-106.880705
0.224629	34.468542	-108.582825
0.225234	35.622176	-109.541521
0.225840	36.467810	-109.868226
0.226445	37.216244	-109.406772
0.227051	37.600789	-108.277809
0.227656	37.827385	-106.437145
0.228262	37.822525	-103.917584
0.228867	37.533964	-100.872585
0.229473	37.008481	-96.882987
0.230078	36.212054	-92.466368
0.230684	35.199967	-87.608629
0.231289	33.974041	-81.976559
0.231895	32.564651	-75.798715
0.232500	30.878244	-69.268408
0.233105	29.058187	-62.235438
0.233711	27.004245	-54.805811
0.234316	24.865253	-46.992544
0.234922	22.499058	-38.974035
0.235527	20.061178	-30.625568
0.236133	17.463528	-22.148316
0.236738	14.731013	-13.482633
0.237344	11.921954	-4.651022
0.237949	9.064902	3.875574
0.238555	6.148924	12.778491
0.239160	3.143036	21.573500
0.239766	0.210655	30.046143
0.240371	-2.750278	38.407353
0.240977	-5.703921	46.535938
0.241582	-8.708594	54.315586
0.242187	-11.592375	61.719184
0.242793	-14.391715	68.752698
0.243398	-17.143062	75.434833
0.244004	-19.737068	81.582854
0.244609	-22.204714	87.131418
0.245215	-24.539927	92.078899
0.245820	-26.705041	96.711875
0.246426	-28.732254	100.630981
0.247031	-30.576610	103.616875
0.247637	-32.176753	106.123693
0.248242	-33.686987	108.090159
0.248848	-34.965158	109.214242
0.249453	-35.923786	109.608186
0.250059	-36.708062	109.379628
0.250664	-37.204994	108.490610
0.251270	-37.441309	106.888264
0.251875	-37.500236	104.566625
0.252480	-37.358690	101.500477
0.253086	-36.889703	97.944679
0.253691	-36.211738	93.845818
0.254297	-35.251896	88.815101
0.254902	-34.143216	83.542813
0.255508	-32.787286	77.875768
0.256113	-31.195040	71.451743
0.256719	-29.353114	64.599612
0.257324	-27.396979	57.401255
0.257930	-25.238547	49.886767
0.258535	-23.023618	41.930074
0.259141	-20.528634	33.725303
0.259746	-17.946171	25.346470
0.260352	-15.324220	16.812011
0.260957	-12.564976	8.147955
0.261562	-9.625305	-0.687723
0.262168	-6.752458	-9.385399
0.262773	-3.809750	-17.876478
0.263379	-0.785030	-26.657389
0.263984	2.228148	-35.139792
0.264590	5.165996	-43.227708
0.265195	8.128144	-51.104419
0.265801	11.010710	-58.716512
0.266406	13.856827	-66.012203
0.267012	16.625791	-72.827732
0.267617	19.276902	-79.167166
0.268223	21.804691	-85.002851
0.268828	24.240140	-90.347529
0.269434	26.415582	-95.061572
0.270039	28.491394	-99.088043
0.270645	30.392855	-102.762594
0.271250	32.065897	-105.498783
0.271855	33.560336	-107.443017
0.272461	34.834862	-108.977040
0.273066	35.909521	-109.724530
0.273672	36.811652	-109.746762
0.274277	37.345641	-109.061088
0.274883	37.721073	-107.671575
0.275488	37.841965	-105.623771
0.276094	37.688876	-102.916593
0.276699	37.351716	-99.471684
0.277305	36.735108	-95.431928
0.277910	35.851809	-90.890050
0.278516	34.783225	-85.615864
0.279121	33.485007	-79.688810
0.279727	31.972343	-73.664964
0.280332	30.313273	-66.903389
0.280938	28.360782	-59.571097
0.281543	26.269783	-52.045492
0.282148	24.027517	-44.174204
0.282754	21.630339	-36.043992
0.283359	19.091616	-27.639673
0.283965	16.522517	-19.040687
0.284570	13.801545	-10.310476
0.285176	10.949353	-1.610089
0.285781	8.052815	7.190343
0.286387	5.145341	15.977761
0.286992	2.155248	24.381809
0.287598	-0.799610	32.965883
0.288203	-3.841340	41.419276
0.288809	-6.728766	49.282159
0.289414	-9.645960	56.935734
0.290020	-12.476889	64.304628
0.290625	-15.276228	71.206646
0.291230	-17.865981	77.669171
0.291836	-20.461202	83.611679
0.292441	-22.855342	89.055047
0.293047	-25.140740	93.884588
0.293652	-27.306462	98.030896
0.294258	-29.192128	101.710599
0.294863	-30.988492	104.719268
0.295469	-32.499333	107.033587
0.296074	-33.852833	108.409002
0.296680	-34.946933	109.435479
0.297285	-35.870933	109.794991
0.297891	-36.559833	109.220478
0.298496	-37.057980	108.014245
0.299102	-37.274856	106.135080
0.299707	-37.247518	103.641277
0.300312	-36.931013	100.427095
0.300918	-36.421932	96.611830
0.301523	-35.592093	92.181384
0.302129	-34.595193	87.266438
0.302734	-33.423334	81.718687
0.303340	-31.992682	75.503699
0.303945	-30.386464	69.062593
0.304551	-28.547575	62.224018
0.305156	-26.562280	54.634429
0.305762	-24.370436	46.936389
0.306367	-21.984801	39.070252
0.306973	-19.500144	30.788753
0.307578	-16.913428	22.352712
0.308184	-14.193064	13.729596
0.308789	-11.456904	5.027853
0.309395	-8.583450	-3.676329
0.310000	-5.682659	-12.476490
0.310605	-2.729623	-21.155729
0.311211	0.230702	-29.620238
0.311816	3.153363	-37.962198
0.312422	6.171401	-46.251289
0.313027	9.098314	-53.978068
0.313633	11.934103	-61.297889
0.314238	14.701246	-68.510615
0.314844	17.416143	-75.171061
0.315449	20.053889	-81.321251
0.316055	22.468683	-87.011884
0.316660	24.777774	-92.109026
0.317266	26.944103	-96.607795
0.317871	28.958558	-100.541270
0.318477	30.789549	-103.775786
0.319082	32.379972	-106.366924
0.319688	33.810017	-108.354538
0.320293	35.014681	-109.480518
0.320898	35.931391	-109.896694
0.321504	36.686508	-109.881782
0.322109	37.191944	-108.891635
0.322715	37.468355	-107.131224
0.323320	37.516347	-104.842661
0.323926	37.324378	-101.846735
0.324531	36.848709	-98.196314
0.325137	36.216307	-93.930169
0.325742	35.271651	-89.112286
0.326348	34.074277	-83.720703
0.326953	32.688580	-77.752980
0.327559	31.161336	-71.277984
0.328164	29.364365	-64.370815
0.328770	27.413697	-57.206348
0.329375	25.325735	-49.386031
0.329980	23.040336	-41.228436
0.330586	20.624934	-33.193389
0.331191	18.090463	-24.654050
0.331797	15.392575	-16.011412
0.332402	12.689220	-7.261138
0.333008	9.891704	1.480731
0.333613	6.955070	10.251610
0.334219	3.976520	18.968265
0.334824	1.093346	27.525498
0.335430	-1.835997	35.939848
0.336035	-4.815763	44.126183
0.336641	-7.789453	52.106463
0.337246	-10.639822	59.629628
0.337852	-13.466499	66.599969
0.338457	-16.172284	73.542655
0.339062	-18.791805	79.989726
0.339668	-21.312303	85.598480
0.340273	-23.626861	90.821423
0.340879	-25.843005	95.484765
0.341484	-27.865965	99.546754
0.342090	-29.792333	102.862878
0.342695	-31.379719	105.657359
0.343301	-32.899673	107.691877
0.343906	-34.202751	109.045331
0.344512	-35.212408	109.677594
0.345117	-36.017340	109.508412
0.345723	-36.554366	108.997342
0.346328	-36.969893	107.569058
0.346934	-37.009988	105.224644
0.347539	-36.881806	102.596091
0.348145	-36.481466	99.290270
0.348750	-35.905561	95.309619
0.349355	-35.045347	90.572260
0.349961	-33.974940	85.436076
0.350566	-32.677330	79.749781
0.351172	-31.207190	73.509849
0.351777	-29.449098	66.792467
0.352383	-27.584087	59.648606
0.352988	-25.496125	52.309807
0.353594	-23.261149	44.414660
0.354199	-20.822662	36.149970
0.354805	-18.398755	27.985867
0.355410	-15.807179	19.508074
0.356016	-13.048542	10.783557
0.356621	-10.163546	2.024878
0.357227	-7.311354	-6.719431
0.357832	-4.375329	-15.380505
0.358438	-1.475145	-24.048357
0.359043	1.497331	-32.529405
0.359648	4.510508	-40.824731
0.360254	7.391860	-48.770037
0.360859	10.266528	-56.552396
0.361465	13.135122	-63.987444
0.362070	15.884647	-70.827375
0.362676	18.562487	-77.247604
0.363281	21.111538	-83.488620
0.363887	23.550633	-88.941206
0.364492	25.802011	-93.751227
0.365098	27.855953	-98.008154
0.365703	29.795079	-101.742894
0.366309	31.528264	-104.775965
0.366914	33.056722	-107.076185
0.367520	34.409615	-108.741432
0.368125	35.564464	-109.705551
0.368730	36.439258	-109.968813
0.369336	37.023668	-109.453677
0.369941	37.443448	-108.284859
0.370547	37.651819	-106.618527
0.371152	37.516955	-103.891014
0.371758	37.131195	-100.595766
0.372363	36.624544	-96.942092
0.372969	35.900409	-92.438984
0.373574	34.902901	-87.339945
0.374180	33.653283	-81.700012
0.374785	32.171602	-75.601065
0.375391	30.508279	-68.977763
0.375996	28.626258	-61.941810
0.376602	26.619093	-54.485884
0.377207	24.396266	-46.740398
0.377812	22.058624	-38.700742
0.378418	19.566070	-30.236504
0.379023	16.945334	-21.691200
0.379629	14.300299	-13.263565
0.380234	11.528296	-4.302627
0.380840	8.678535	4.536847
0.381445	5.693910	13.160234
0.382051	2.743911	21.861706
0.382656	-0.146552	30.411619
0.383262	-3.138468	38.795603
0.383867	-6.099401	46.870506
0.384473	-8.975285	54.611654
0.385078	-11.807429	62.057006
0.385684	-14.608590	69.134441
0.386289	-17.301618	75.660138
0.386895	-19.920531	81.710554
0.387500	-22.393645	87.500961
0.388105	-24.742223	92.551469
0.388711	-26.872710	96.754442
0.389316	-28.833705	100.669751
0.389922	-30.677454	103.897489
0.390527	-32.267878	106.364994
0.391133	-33.659650	108.135166
0.391738	-34.843659	109.271991
0.392344	-35.799249	109.684101
0.392949	-36.565908	109.404029
0.393555	-37.092607	108.428794
0.394160	-37.337428	106.676516
0.394766	-37.296725	104.508604
0.395371	-37.064662	101.457911
0.395977	-36.506374	97.713680
0.396582	-35.805324	93.704019
0.397187	-34.880108	88.885865
0.397793	-33.705212	83.437075
0.398398	-32.346244	77.542014
0.399004	-30.727876	71.166520
0.399609	-28.912680	64.330656
0.400215	-26.966872	57.057469
0.400820	-24.833347	49.508006
0.401426	-22.482947	41.574359
0.402031	-20.006188	33.420559
0.402637	-17.416435	24.951712
0.403242	-14.762894	16.344050
0.403848	-11.997575	7.811760
0.404453	-9.224358	-1.011446
0.405059	-6.287117	-9.866916
0.405664	-3.344409	-18.394326
0.406270	-0.354923	-26.942883
0.406875	2.693489	-35.421761
0.407480	5.624655	-43.527843
0.408086	8.591663	-51.459050
0.408691	11.511287	-59.051080
0.409297	14.347683	-66.325080
0.409902	17.020056	-73.125969
0.410508	19.669344	-79.485466
0.411113	22.217180	-85.247948
0.411719	24.591273	-90.586390
0.412324	26.801341	-95.388819
0.412930	28.829161	-99.224418
0.413535	30.731230	-102.706471
0.414141	32.402450	-105.644377
0.414746	33.902356	-107.676184
0.415352	35.085758	-109.094437
0.415957	36.117285	-109.821322
0.416563	36.985396	-109.813730
0.417168	37.551582	-109.081965
0.417773	37.938556	-107.659103
0.418379	37.979259	-105.566293
0.418984	37.809160	-102.843660
0.419590	37.379053	-99.422610
0.420195	36.763053	-95.260577
0.420801	35.844519	-90.751505
0.421406	34.755280	-85.549438
0.422012	33.381125	-79.534540
0.422617	31.869676	-73.198901
0.423223	30.134669	-66.498329
0.423828	28.249611	-59.309732
0.424434	26.122161	-51.697368
0.425039	23.885970	-43.818218
0.425645	21.481503	-35.692344
0.426250	18.832215	-27.319746
0.426855	16.192040	-18.687954
0.427461	13.416393	-9.969401
0.428066	10.590323	-1.279046
0.428672	7.681635	7.407514
0.429277	4.786919	16.380652
0.429883	1.784676	24.906706
0.430488	-1.151957	33.195526
0.431094	-4.145088	41.554838
0.431699	-7.129106	49.596934
0.432305	-10.017139	57.259728
0.432910	-12.919145	64.466761
0.433516	-15.614603	71.402398
0.434121	-18.348940	77.849469
0.434727	-20.899814	83.793061
0.435332	-23.285449	89.189253
0.435937	-25.582997	93.960503
0.436543	-27.683716	98.298225
0.437148	-29.670834	101.738524
0.437754	-31.371214	104.545477
0.438359	-32.924580	107.073171
0.438965	-34.256210	108.723235
0.439570	-35.377040	109.449849
0.440176	-36.287068	109.582700
0.440781	-36.922508	109.089524
0.441387	-37.294295	107.920164
0.441992	-37.549444	105.964814
0.442598	-37.502666	103.389402
0.443203	-37.124197	100.217245
0.443809	-36.602358	96.389508
0.444414	-35.756117	91.864710
0.445020	-34.713654	86.809051
0.445625	-33.451279	81.422619
0.446230	-31.989645	75.303609
0.446836	-30.317817	68.555861
0.447441	-28.377476	61.724607
0.448047	-26.382461	54.436779
0.448652	-24.162065	46.745246
0.449258	-21.797692	38.656245
0.449863	-19.293596	30.377728
0.450469	-16.668608	21.952804
0.451074	-13.988338	13.338905
0.451680	-11.108201	4.641230
0.452285	-8.177643	-4.108231
0.452891	-5.270169	-12.776625
0.453496	-2.345079	-21.524188
0.454102	0.666884	-30.097688
0.454707	3.634500	-38.204313
0.455313	6.552301	-46.379531
0.455918	9.505944	-54.291759
0.456523	12.403698	-61.680717
0.457129	15.235234	-68.732124
0.457734	17.905177	-75.377116
0.458340	20.499183	-81.533541
0.458945	22.941315	-87.206280
0.459551	25.271667	-92.241877
0.460156	27.357807	-96.692386
0.460762	29.373477	-100.644569
0.461367	31.228161	-103.881525
0.461973	32.810687	-106.283688
0.462578	34.249236	-108.274014
0.463184	35.455115	-109.513053
0.463789	36.436828	-109.747847
0.464395	37.098998	-109.577852
0.465000	37.581957	-108.617800
0.465605	37.786075	-106.984545
0.466211	37.819487	-104.656941
0.466816	37.597751	-101.585371
0.467422	37.193767	-97.948506
0.468027	36.436220	-93.672330
0.468633	35.508574	-88.828690
0.469238	34.369520	-83.298833
0.469844	32.926718	-77.427360
0.470449	31.353913	-71.000081
0.471055	29.504696	-63.864896
0.471660	27.509681	-56.665184
0.472266	25.375549	-48.998052
0.472871	23.061599	-40.901731
0.473477	20.615822	-32.673914
0.474082	18.066771	-24.144064
0.474687	15.388930	-15.532064
0.475293	12.579264	-6.832761
0.475898	9.780532	1.999392
0.476504	6.801374	10.745328
0.477109	3.857451	19.342145
0.477715	0.923247	27.889076
0.478320	-2.010349	36.417570
0.478926	-4.965814	44.484339
0.479531	-7.842305	52.259649
0.480137	-10.704217	60.015980
0.480742	-13.572811	67.196985
0.481348	-16.276166	73.853635
0.481953	-18.885359	80.116341
0.482559	-21.414970	85.809957
0.483164	-23.738033	91.032087
0.483770	-25.942027	95.610296
0.484375	-27.991109	99.625651
0.484980	-29.755884	103.006303
0.485586	-31.478741	105.698027
0.486191	-32.976825	107.688624
0.486797	-34.227051	108.923867
0.487402	-35.293205	109.734259
0.488008	-36.123652	109.532813
0.488613	-36.690445	108.662774
0.489219	-37.030035	107.328028
0.489824	-37.054335	105.224373
0.490430	-36.961388	102.400068
0.491035	-36.551936	98.958142
0.491641	-35.878223	94.925978
0.492246	-35.095162	90.250435
0.492852	-34.083074	85.004988
0.493457	-32.749014	79.272873
0.494063	-31.227845	73.001762
0.494668	-29.521390	66.336707
0.495273	-27.610817	59.111508
0.495879	-25.568417	51.542795
0.496484	-23.275729	43.958357
0.497090	-20.880374	35.779614
0.497695	-18.405437	27.356858
0.498301	-15.747645	18.903466
0.498906	-13.029710	10.276825
0.499512	-10.224903	1.475308
0.500117	-7.352664	-7.253004
0.500723	-4.409956	-15.925195
0.501328	-1.483042	-24.514149
0.501934	1.541070	-33.059182
0.502539	4.484386	-41.354238
0.503145	7.358447	-49.356208
0.503750	10.249518	-56.891030
0.504355	13.087130	-64.408772
0.504961	15.823290	-71.455299
0.505566	18.481083	-77.716379
0.506172	21.000367	-83.668105
0.506777	23.389039	-89.208535
0.507383	25.707242	-94.052989
0.507988	27.782446	-98.237796
0.508594	29.660215	-101.921294
0.509199	31.438962	-104.954636
0.509805	32.920644	-107.259466
0.510410	34.235871	-108.871843
0.511016	35.370065	-109.709889
0.511621	36.283739	-109.946581
0.512227	36.935581	-109.559958
0.512832	37.324986	-108.117304
0.513437	37.491440	-106.216450
0.514043	37.444055	-103.788529
0.514648	37.156102	-100.526901
0.515254	36.541924	-96.554113
0.515859	35.761293	-92.112821
0.516465	34.800235	-87.040623
0.517070	33.530569	-81.437292
0.517676	32.144264	-75.236944
0.518281	30.470614	-68.578397
0.518887	28.663315	-61.549764
0.519492	26.713862	-54.083536
0.520098	24.508653	-46.148533
0.520703	22.152786	-38.103997
0.521309	19.687569	-29.923626
0.521914	17.106928	-21.160610
0.522520	14.423013	-12.390001
0.523125	11.658908	-3.738688
0.523730	8.785454	5.030293
0.524336	5.958170	13.830183
0.524941	2.982657	22.489088
0.525547	0.077614	31.004839
0.526152	-2.944069	39.321585
0.526758	-5.901965	47.392150
0.527363	-8.769344	55.199181
0.527969	-11.621535	62.576751
0.528574	-14.349190	69.428340
0.529180	-17.035535	76.195880
0.529785	-19.636223	82.308112
0.530391	-22.036438	87.664720
0.530996	-24.338239	92.728784
0.531602	-26.496063	97.179836
0.532207	-28.464956	100.923524
0.532813	-30.275292	104.042541
0.533418	-31.909455	106.522246
0.534023	-33.253843	108.310855
0.534629	-34.371635	109.394540
0.535234	-35.354562	109.744019
0.535840	-36.110287	109.382068
0.536445	-36.641845	108.435301
0.537051	-36.892133	106.666484
0.537656	-36.856291	104.121980
0.538262	-36.627265	101.388774
0.538867	-36.265198	97.764110
0.539473	-35.539241	93.374332
0.540078	-34.507714	88.545061
0.540684	-33.422119	83.172728
0.541289	-32.022449	77.235643
0.541895	-30.398614	70.784505
0.542500	-28.667859	63.909871
0.543105	-26.782801	56.618789
0.543711	-24.609789	49.028657
0.544316	-22.315886	41.073050
0.544922	-19.839127	32.750881
0.545527	-17.311946	24.510864
0.546133	-14.689995	15.953902
0.546738	-11.886403	7.072132
0.547344	-9.085241	-1.585146
0.547949	-6.270715	-10.207449
0.548555	-3.334081	-18.927357
0.549160	-0.322726	-27.555896
0.549766	2.614515	-35.922799
0.550371	5.546896	-44.086902
0.550977	8.486566	-52.023260
0.551582	11.356983	-59.618814
0.552187	14.197632	-66.831270
0.552793	16.917389	-73.521268
0.553398	19.459150	-79.929839
0.554004	22.009417	-85.888344
0.554609	24.318507	-90.914451
0.555215	26.521893	-95.433284
0.555820	28.527843	-99.669334
0.556426	30.460894	-103.110718
0.557031	32.121787	-105.777770
0.557637	33.560336	-107.843197
0.558242	34.891966	-109.225390
0.558848	35.868212	-109.901303
0.559453	36.657956	-109.823491
0.560059	37.211384	-109.089556
0.560664	37.495085	-107.659646
0.561270	37.604434	-105.613740
0.561875	37.470785	-102.666887
0.562480	36.991471	-99.107021
0.563086	36.393695	-95.267627
0.563691	35.564464	-90.560633
0.564297	34.396858	-85.103980
0.564902	33.121725	-79.275074
0.565508	31.576863	-73.005047
0.566113	29.842464	-66.223680
0.566719	27.944040	-58.971098
0.567324	25.771636	-51.388015
0.567930	23.646009	-43.462502
0.568535	21.240935	-35.331477
0.569141	18.691276	-26.835789
0.569746	16.085728	-18.168750
0.570352	13.384803	-9.648661
0.570957	10.566024	-0.805391
0.571562	7.629998	8.181032
0.572168	4.701262	16.737181
0.572773	1.839351	25.366804
0.573379	-1.118545	33.883098
0.573984	-4.062468	42.162970
0.574590	-7.019757	50.146504
0.575195	-9.912650	57.737720
0.575801	-12.754514	64.996809
0.576406	-15.477917	71.895031
0.577012	-18.222581	78.313363
0.577617	-20.735790	84.142541
0.578223	-23.064321	89.487761
0.578828	-25.422618	94.440123
0.579434	-27.423101	98.468491
0.580039	-29.316057	101.945664
0.580645	-31.088121	105.035128
0.581250	-32.573448	107.275972
0.581855	-33.950640	108.740045
0.582461	-35.044132	109.534169
0.583066	-35.926216	109.650210
0.583672	-36.593853	109.126126
0.584277	-36.950453	107.890612
0.584883	-37.084709	105.922519
0.585488	-36.999660	103.291797
0.586094	-36.680117	100.106626
0.586699	-36.135801	96.178844
0.587305	-35.333907	91.601177
0.587910	-34.251958	86.794681
0.588516	-33.085567	81.102692
0.589121	-31.568650	74.991274
0.589727	-29.879205	68.398338
0.590332	-27.969847	61.416067
0.590938	-26.009459	54.025483
0.591543	-23.749575	46.324461
0.592148	-21.383988	38.256879
0.592754	-18.943678	29.921968
0.593359	-16.365468	21.473727
0.593965	-13.631738	12.865522
0.594570	-10.802024	4.140734
0.595176	-7.937075	-4.479129
0.595781	-5.021704	-13.353307
0.596387	-2.016423	-22.065623
0.596992	0.923855	-30.403788
0.597598	3.909695	-38.676069
0.598203	6.844506	-46.829869
0.598809	9.674828	-54.648288
0.599414	12.525804	-62.118041
0.600020	15.357341	-69.193307
0.600625	18.050976	-75.797901
0.601230	20.589092	-81.963002
0.601836	23.083469	-87.545457
0.602441	25.393167	-92.596779
0.603047	27.504214	-97.111545
0.603652	29.516846	-101.003267
0.604258	31.271901	-103.997295
0.604863	32.811902	-106.587619
0.605469	34.214001	-108.521279
0.606074	35.362775	-109.541792
0.606680	36.310468	-109.939261
0.607285	37.083810	-109.631806
0.607891	37.581349	-108.623764
0.608496	37.794580	-106.938454
0.609102	37.736868	-104.546051
0.609707	37.442840	-101.536026
0.610313	36.995116	-97.854426
0.610918	36.231494	-93.541105
0.611523	35.321466	-88.559192
0.612129	34.080960	-83.208006
0.612734	32.737180	-77.283121
0.613340	31.058062	-70.538898
0.613945	29.298755	-63.628476
0.614551	27.313460	-56.349052
0.615156	25.137411	-48.623358
0.615762	22.810096	-40.595631
0.616367	20.352776	-32.337448
0.616973	17.797650	-23.859655
0.617578	15.116165	-15.228133
0.618184	12.389725	-6.469183
0.618789	9.489542	2.278108
0.619395	6.639173	11.009946
0.620000	3.658800	19.628182
0.620605	0.750111	28.400417
0.621211	-2.279469	36.665378
0.621816	-5.209420	44.692834
0.622422	-8.036097	52.744691
0.623027	-10.935673	60.309066
0.623633	-13.671225	67.411173
0.624238	-16.399487	74.164615
0.624844	-19.067608	80.369029
0.625449	-21.518852	86.115243
0.626055	-23.884439	91.210216
0.626660	-26.090863	95.802795
0.627266	-28.091346	99.737354
0.627871	-29.980657	103.102010
0.628477	-31.623932	105.722971
0.629082	-33.097716	107.579632
0.629687	-34.363737	109.115824
0.630293	-35.366105	109.668104
0.630898	-36.151596	109.437377
0.631504	-36.737830	108.667112
0.632109	-37.056157	107.267839
0.632715	-37.106579	105.034043
0.633320	-36.966248	102.181000
0.633926	-36.558011	98.726602
0.634531	-35.906168	94.670850
0.635137	-35.015580	89.956536
0.635742	-33.949425	84.702684
0.636348	-32.648777	78.883538
0.636953	-31.120926	72.688342
0.637559	-29.351292	65.912126
0.638164	-27.440111	58.544858
0.638770	-25.375841	51.268960
0.639375	-23.124463	43.490125
0.639980	-20.725463	35.272882
0.640586	-18.163654	26.927939
0.641191	-15.464552	18.434963
0.641797	-12.734467	9.771449
0.642402	-10.000130	1.032562
0.643008	-7.086581	-7.675145
0.643613	-4.133545	-16.386377
0.644219	-1.215744	-25.004885
0.644824	1.760984	-33.500573
0.645430	4.741357	-41.843617
0.646035	7.662803	-49.557382
0.646641	10.545976	-57.312358
0.647246	13.388448	-64.751745
0.647852	16.154982	-71.577576
0.648457	18.683986	-77.999433
0.649062	21.262197	-83.953057
0.649668	23.688534	-89.408354
0.650273	25.929585	-94.230033
0.650879	27.993247	-98.443580
0.651484	29.947560	-102.075293
0.652090	31.671025	-105.057663
0.652695	33.232896	-107.392859
0.653301	34.525039	-108.843918
0.653906	35.614279	-109.809663
0.654512	36.473277	-110.113052
0.655117	37.118438	-109.286393
0.655723	37.546114	-108.026206
0.656328	37.705278	-106.210485
0.656934	37.661538	-103.602538
0.657539	37.341996	-100.300241
0.658145	36.868757	-96.316065
0.658750	36.006721	-91.865827
0.659355	35.018326	-86.742928
0.659961	33.800297	-81.078052
0.660566	32.317400	-74.864148
0.661172	30.702070	-68.244913
0.661777	28.880191	-61.189168
0.662383	26.846296	-53.504956
0.662988	24.642302	-45.794445
0.663594	22.314379	-37.805217
0.664199	19.816358	-29.296515
0.664805	17.185295	-20.681533
0.665410	14.490445	-12.050011
0.666016	11.666198	-3.334712
0.666621	8.917281	5.494188
0.667227	5.971535	14.250155
0.667832	3.078034	22.910416
0.668438	0.071539	31.368417
0.669043	-2.886357	39.717698
0.669648	-5.813270	47.813206
0.670254	-8.761446	55.413912
0.670859	-11.534663	62.775215
0.671465	-14.396575	69.997702
0.672070	-17.102967	76.424438
0.672676	-19.606456	82.427407
0.673281	-22.087468	87.981936
0.673887	-24.353426	93.010754
0.674492	-26.475408	97.394567
0.675098	-28.465563	101.070474
0.675703	-30.307490	104.147466
0.676309	-31.904595	106.537158
0.676914	-33.281788	108.313566
0.677520	-34.497386	109.240541
0.678125	-35.428677	109.623640
0.678730	-36.205056	109.356582
0.679336	-36.627873	108.140589
0.679941	-36.891526	106.388311
0.680547	-36.909143	104.162107
0.681152	-36.737222	101.056375
0.681758	-36.291320	97.355525
0.682363	-35.573868	93.045187
0.682969	-34.675990	88.165487
0.683574	-33.521748	82.726186
0.684180	-32.105676	76.772562
0.684785	-30.532263	70.325491
0.685391	-28.760198	63.415611
0.685996	-26.776118	56.202884
0.686602	-24.685726	48.424321
0.687207	-22.376028	40.413132
0.687813	-19.964878	32.426616
0.688418	-17.441950	23.905172
0.689023	-14.768969	15.255214
0.689629	-12.051642	6.646467
0.690234	-9.132018	-2.075881
0.690840	-6.233050	-10.839711
0.691445	-3.392401	-19.514613
0.692051	-0.375578	-28.047987
0.692656	2.571990	-36.493246
0.693262	5.453949	-44.663042
0.693867	8.391190	-52.559273
0.694473	11.339365	-60.158352
0.695078	14.121087	-67.170176
0.695684	16.820797	-74.070838
0.696289	19.513825	-80.435216
0.696895	22.040399	-85.985949
0.697500	24.331264	-91.183677
0.698105	26.534043	-95.856509
0.698711	28.604388	-99.874304
0.699316	30.342433	-103.270681
0.699922	32.088982	-105.991687
0.700527	33.585244	-107.995298
0.701133	34.825749	-109.299136
0.701738	35.942934	-109.890187
0.702344	36.693191	-109.824846
0.702949	37.202879	-109.048345
0.703555	37.580742	-107.703568
0.704160	37.658501	-105.291915
0.704766	37.425223	-102.458663
0.705371	37.016986	-99.118138
0.705977	36.399770	-94.937397
0.706582	35.608811	-90.092130
0.707187	34.489197	-84.788391
0.707793	33.140557	-78.949453
0.708398	31.731775	-72.601343
0.709004	29.987048	-65.776324
0.709609	28.080119	-58.522658
0.710215	25.969072	-50.942829
0.710820	23.762649	-43.049580
0.711426	21.415893	-34.716837
0.712031	18.854085	-26.329870
0.712637	16.280126	-17.875122
0.713242	13.554902	-8.893037
0.713848	10.734300	-0.132731
0.714453	7.879071	8.605613
0.715059	4.964307	17.305187
0.715664	2.038002	25.909324
0.716270	-0.952699	34.341298
0.716875	-3.915454	42.622526
0.717480	-6.788301	50.605789
0.718086	-9.638062	58.233607
0.718691	-12.433149	65.477242
0.719297	-15.178421	72.309310
0.719902	-17.864766	78.591808
0.720508	-20.401060	84.612400
0.721113	-22.883894	89.862727
0.721719	-25.089103	94.477809
0.722324	-27.152765	98.773777
0.722930	-29.008057	102.310597
0.723535	-30.746101	105.159574
0.724141	-32.261195	107.324233
0.724746	-33.625023	108.842801
0.725352	-34.684495	109.560468
0.725957	-35.576298	109.646143
0.726562	-36.240898	109.103623
0.727168	-36.669790	107.759116
0.727773	-36.872694	105.796175
0.728379	-36.751194	103.111228
0.728984	-36.366650	99.720544
0.729590	-35.805324	96.051416
0.730195	-35.021655	91.530143
0.730801	-34.002277	86.329974
0.731406	-32.828596	80.733421
0.732012	-31.359064	74.619291
0.732617	-29.659899	67.945018
0.733223	-27.813720	60.893068
0.733828	-25.850295	53.515498
0.734434	-23.702798	45.808511
0.735039	-21.291649	37.727915
0.735645	-18.831292	29.365891
0.736250	-16.267053	20.894062
0.736855	-13.567951	12.403255
0.737461	-10.819641	3.575439
0.738066	-7.945580	-5.330731
0.738672	-5.104931	-13.826962
0.739277	-2.202317	-22.356811
0.739883	0.772588	-31.011649
0.740488	3.790019	-39.369335
0.741094	6.699315	-47.360460
0.741699	9.531459	-55.146073
0.742305	12.440147	-62.659205
0.742910	15.218832	-69.691634
0.743516	17.813445	-76.258813
0.744121	20.377684	-82.387855
0.744727	22.860518	-87.974918
0.745332	25.173253	-93.094834
0.745938	27.325610	-97.280184
0.746543	29.228286	-101.092195
0.747148	31.058062	-104.441668
0.747754	32.610213	-106.889652
0.748359	33.999556	-108.592585
0.748965	35.121600	-109.618520
0.749570	36.075368	-110.081059
0.750176	36.808615	-109.738086
0.750781	37.259984	-108.640303
0.751387	37.543077	-106.904835
0.751992	37.529712	-104.564488
0.752598	37.276386	-101.499424
0.753203	36.740575	-97.613938
0.753809	36.011581	-93.378160
0.754414	35.079075	-88.607181
0.755020	33.875019	-82.840361
0.755625	32.483247	-76.759309
0.756230	30.891001	-70.297868
0.756836	29.165714	-63.318580
0.757441	27.166446	-55.944806
0.758047	25.043857	-48.151330
0.758652	22.780936	-40.134448
0.759258	20.252540	-31.919645
0.759863	17.755126	-23.386542
0.760469	15.060275	-14.744718
0.761074	12.317433	-5.955945
0.761680	9.518094	2.650362
0.762285	6.631275	11.557617
0.762891	3.715297	20.386788
0.763496	0.801141	28.691605
0.764102	-2.087500	37.171567
0.764707	-5.099463	45.354377
0.765312	-8.007544	53.207500
0.765918	-10.822678	60.702467
0.766523	-13.660897	67.789663
0.767129	-16.282848	74.552323
0.767734	-18.912089	80.757008
0.768340	-21.370623	86.463638
0.768945	-23.655414	91.525805
0.769551	-25.846650	96.155256
0.770156	-27.853208	100.102288
0.770762	-29.713359	103.168164
0.771367	-31.380934	105.949360
0.771973	-32.858971	108.052202
0.772578	-34.061812	109.173844
0.773184	-35.041702	109.685727
0.773789	-35.808361	109.633943
0.774395	-36.399455	108.736520
0.775000	-36.711707	107.188941
0.775605	-36.770027	104.972769
0.776211	-36.641845	102.081768
0.776816	-36.211131	98.629810
0.777422	-35.575083	94.411654
0.778027	-34.711832	89.633084
0.778633	-33.570348	84.554650
0.779238	-32.239325	78.695377
0.779844	-30.650117	72.187846
0.780449	-28.940625	65.565629
0.781055	-27.025191	58.452134
0.781660	-24.949987	50.907822
0.782266	-22.756320	42.985020
0.782871	-20.323301	34.838812
0.783477	-17.773035	26.513390
0.784082	-15.154121	17.943685
0.784687	-12.379689	9.311350
0.785293	-9.610117	0.536675
0.785898	-6.678952	-8.105962
0.786504	-3.766011	-16.912901
0.787109	-0.785030	-25.553912
0.787715	2.099966	-33.795827
0.788320	5.000757	-42.132907
0.788926	7.911876	-50.220553
0.789531	10.873416	-57.817192
0.790137	13.659391	-65.018802
0.790742	16.409523	-71.914855
0.791348	19.030259	-78.347014
0.791953	21.591460	-84.283829
0.792559	23.921812	-89.720960
0.793164	26.120339	-94.507122
0.793770	28.198581	-98.777334
0.794375	30.117052	-102.363227
0.794980	31.810749	-105.169909
0.795586	33.296683	-107.521372
0.796191	34.642286	-109.153813
0.796797	35.764330	-109.719650
0.797402	36.571692	-109.927060
0.798008	37.200449	-109.349565
0.798613	37.573452	-108.095072
0.799219	37.743550	-106.130503
0.799824	37.589854	-103.470771
0.800430	37.235684	-100.177692
0.801035	36.676181	-96.235541
0.801641	35.853632	-91.678480
0.802246	34.851264	-86.510575
0.802852	33.619263	-80.864135
0.803457	32.128469	-74.686833
0.804063	30.394070	-67.832804
0.804668	28.551536	-60.804984
0.805273	26.501238	-53.355837
0.805879	24.297852	-45.417581
0.806484	21.955349	-37.238838
0.807090	19.510788	-28.927515
0.807695	16.866967	-20.325546
0.808301	14.215857	-11.618652
0.808906	11.386750	-2.890068
0.809512	8.538204	5.895181
0.810117	5.591850	14.608040
0.810723	2.632740	23.202146
0.811328	-0.319689	31.793541
0.811934	-3.263612	39.976351
0.812539	-6.138281	48.033088
0.813145	-9.034819	55.935827
0.813750	-11.861496	63.277066
0.814355	-14.624385	70.107778
0.814961	-17.333815	76.719964
0.815566	-19.890156	82.785834
0.816172	-22.424628	88.182026
0.816777	-24.584882	93.170717
0.817383	-26.756071	97.470482
0.817988	-28.661177	101.216881
0.818594	-30.432634	104.291704
0.819199	-32.021842	106.629069
0.819805	-33.375949	108.300281
0.820410	-34.544163	109.428430
0.821016	-35.507651	109.652379
0.821621	-36.243936	109.085186
0.822227	-36.725680	108.244972
0.822832	-36.942556	106.537158
0.823438	-36.915218	103.977471
0.824043	-36.607826	100.941960
0.824648	-36.056827	97.235417
0.825254	-35.434144	92.870311
0.825859	-34.428132	87.952925
0.826465	-33.289078	82.436083
0.827070	-31.898520	76.515536
0.827676	-30.356697	70.029423
0.828281	-28.438226	63.060167
0.828887	-26.474193	55.664702
0.829492	-24.322444	48.301501
0.830098	-21.979334	40.256965
0.830703	-19.511687	31.845054
0.831309	-16.934083	23.518006
0.831914	-14.340077	14.945047
0.832520	-11.520691	6.235713
0.833125	-8.645415	-2.514561
0.833730	-5.793831	-11.240976
0.834336	-2.846870	-19.846198
0.834941	0.196075	-28.418343
0.835547	3.096866	-36.860890
0.836152	6.066304	-45.038278
0.836758	8.956160	-52.836091
0.837363	11.811997	-60.475568
0.837969	14.606476	-67.750382
0.838574	17.288569	-74.182812
0.839180	19.941502	-80.407832
0.839785	22.431626	-86.232130
0.840391	24.808756	-91.448024
0.840996	26.956253	-95.992885
0.841602	28.949445	-99.966486
0.842207	30.774362	-103.402448
0.842812	32.402450	-106.081972
0.843418	33.863477	-108.037593
0.844023	35.026223	-109.289646
0.844629	36.045600	-109.981285
0.845234	36.911282	-109.947666
0.845840	37.402138	-108.886755
0.846445	37.732008	-107.408855
0.847051	37.800655	-105.375150
0.847656	37.669436	-102.361329
0.848262	37.139700	-98.792246
0.848867	36.556504	-94.635093
0.849473	35.678066	-89.916983
0.850078	34.521394	-84.593724
0.850684	33.209811	-78.672635
0.851289	31.698363	-72.314222
0.851895	30.018637	-65.396750
0.852500	28.088017	-58.246924
0.853105	25.949025	-50.472428
0.853711	23.666664	-42.568605
0.854316	21.256730	-34.585342
0.854922	18.749596	-25.862452
0.855527	16.077223	-17.165589
0.856133	13.382980	-8.566332
0.856738	10.600651	0.179875
0.857344	7.695607	8.964311
0.857949	4.779021	17.713229
0.858555	1.923792	26.323060
0.859160	-1.077843	34.688880
0.859766	-4.090413	42.960348
0.860371	-7.030084	50.881523
0.860977	-9.857368	58.469757
0.861582	-12.704700	65.614702
0.862187	-15.414130	72.544375
0.862793	-18.102297	78.949421
0.863398	-20.523774	84.569020
0.864004	-22.884502	90.016454
0.864609	-25.225182	94.817799
0.865215	-27.259685	98.887379
0.865820	-29.130771	102.390308
0.866426	-30.910125	105.158761
0.867031	-32.408209	107.297662
0.867637	-33.769606	108.749263
0.868242	-34.843659	109.465303
0.868848	-35.658310	109.527120
0.869453	-36.355107	109.030148
0.870059	-36.713530	107.544115
0.870664	-36.910966	105.423107
0.871270	-36.796757	102.996542
0.871875	-36.557403	99.720273
0.872480	-35.968133	95.633613
0.873086	-35.112779	91.076551
0.873691	-34.113449	86.047462
0.874297	-32.834671	80.433286
0.874902	-31.453834	74.206368
0.875508	-29.709714	67.608010
0.876113	-27.887227	60.552536
0.876719	-25.907400	53.109353
0.877324	-23.712518	45.329163
0.877930	-21.371838	37.154758
0.878535	-18.914519	29.024545
0.879141	-16.390375	20.419865
0.879746	-13.559446	11.680708
0.880352	-10.836043	3.165499
0.880957	-7.941935	-5.469276
0.881563	-5.035069	-14.282180
0.882168	-2.143390	-22.990700
0.882773	0.884975	-31.464156
0.883379	3.728662	-39.791476
0.883984	6.721792	-47.811882
0.884590	9.648098	-55.606442
0.885195	12.500289	-63.025223
0.885801	15.333648	-69.954625
0.886406	17.964104	-76.635134
0.887012	20.607317	-82.702088
0.887617	23.017859	-88.059780
0.888223	25.243115	-93.118964
0.888828	27.394864	-97.606076
0.889434	29.438479	-101.290116
0.890039	31.169841	-104.382292
0.890645	32.799752	-106.791234
0.891250	34.249844	-108.524804
0.891855	35.441142	-109.552637
0.892461	36.418603	-109.902930
0.893066	37.088670	-109.526338
0.893672	37.611116	-108.441026
0.894277	37.827992	-106.711252
0.894883	37.810375	-104.172170
0.895488	37.602004	-101.138015
0.896094	37.127550	-97.521756
0.896699	36.428930	-92.899625
0.897305	35.472732	-87.997151
0.897910	34.317276	-82.505523
0.898516	32.964991	-76.385970
0.899121	31.323538	-69.864611
0.899727	29.575166	-62.877460
0.900332	27.645152	-55.433465
0.900937	25.487936	-47.714277
0.901543	23.178238	-39.633139
0.902148	20.853353	-31.347301
0.902754	18.331031	-22.859205
0.903359	15.604591	-14.266997
0.903965	12.845954	-5.343203
0.904570	10.005305	3.356642
0.905176	7.072924	11.930142
0.905781	4.176993	20.772056
0.906387	1.138908	29.330916
0.906992	-1.727256	37.737133
0.907598	-4.637159	45.837521
0.908203	-7.519118	53.733482
0.908809	-10.433881	61.144943
0.909414	-13.282428	68.202857
0.910020	-16.021625	74.914003
0.910625	-18.636893	81.034911
0.911230	-21.144635	86.785734
0.911836	-23.502932	91.769275
0.912441	-25.679589	96.169084
0.913047	-27.743858	100.318374
0.913652	-29.610692	103.492700
0.914258	-31.287987	105.977286
0.914863	-32.803689	107.927485
0.915469	-34.074569	109.099285
0.916074	-35.073899	109.618217
0.916680	-35.883691	109.362547
0.917285	-36.480859	108.507149
0.917891	-36.861759	106.919715
0.918496	-36.875731	104.732282
0.919102	-36.769419	101.756961
0.919707	-36.369687	98.159680
0.920312	-35.769482	94.097692
0.920918	-34.944503	89.317224
0.921523	-33.820029	83.833459
0.922129	-32.513306	78.210607
0.922734	-31.020082	71.973657
0.923340	-29.269887	65.072182
0.923945	-27.369641	57.877078
0.924551	-25.339999	50.349034
0.925156	-23.105630	42.482897
0.925762	-20.714528	34.289784
0.926367	-18.192814	25.881941
0.926973	-15.629183	17.362936
0.927578	-12.914893	8.742531
0.928184	-10.072421	-0.078235
0.928789	-7.211118	-8.908220
0.929395	-4.269624	-17.359986
0.930000	-1.286214	-25.991778
0.930605	1.637055	-34.605134
0.931211	4.621680	-42.716910
0.931816	7.563781	-50.647032
0.932422	10.461534	-58.309825
0.933027	13.310081	-65.602533
0.933633	16.090588	-72.431890
0.934238	18.683986	-78.774035
0.934844	21.289534	-84.688889
0.935449	23.782696	-90.083725
0.936055	25.966035	-94.853077
0.936660	28.018155	-98.909372
0.937266	29.982188	-102.538374
0.937871	31.693503	-105.581747
0.938477	33.173362	-107.476636
0.939082	34.551161	-108.940709
0.939688	35.699328	-109.821593
0.940293	36.658563	-109.886934
0.940898	37.273349	-109.233252
0.941504	37.683408	-107.911520
0.942109	37.804300	-105.926617
0.942715	37.750840	-103.275833
0.943320	37.425830	-99.844480
0.943926	36.855999	-95.852985
0.944531	36.115462	-91.351504
0.945137	35.094262	-86.224809
0.945742	33.879879	-80.265492
0.946348	32.401842	-74.099848
0.946953	30.853336	-67.555715
0.947559	28.980428	-60.282798
0.948164	26.907045	-52.732522
0.948770	24.765624	-44.834392
0.949375	22.355689	-36.745934
0.949980	19.914165	-28.286034
0.950586	17.334131	-19.742357
0.951191	14.675731	-11.074776
0.951797	11.907981	-2.313115
0.952402	9.065510	6.465356
0.953008	6.173831	15.269312
0.953613	3.302200	23.788046
0.954219	0.302994	32.153865
0.954824	-2.725371	40.785386
0.955430	-5.586675	48.778952
0.956035	-8.500831	56.363932
0.956641	-11.328115	63.684837
0.957246	-14.055162	70.667108
0.957852	-16.735432	77.210970
0.958457	-19.308783	83.169204
0.959063	-21.712643	88.631279
0.959668	-24.111035	93.526162
0.960273	-26.288299	97.795289
0.960879	-28.263875	101.397992
0.961484	-29.992807	104.397714
0.962090	-31.601455	106.901820
0.962695	-33.013882	108.437199
0.963301	-34.140786	109.255182
0.963906	-35.163201	109.681932
0.964512	-35.890981	109.266298
0.965117	-36.380622	108.154958
0.965723	-36.613293	106.280132
0.966328	-36.605396	103.800969
0.966934	-36.401277	100.710962
0.967539	-35.932290	96.905458
0.968145	-35.216053	92.548215
0.968750	-34.245275	87.594499
0.969355	-33.115334	82.142455
0.969961	-31.775199	75.973829
0.970566	-30.136783	69.407735
0.971172	-28.379906	62.701469
0.971777	-26.471763	55.316849
0.972383	-24.325481	47.519578
0.972988	-22.023681	39.596234
0.973594	-19.563931	31.410984
0.974199	-17.051330	22.925327
0.974805	-14.351620	14.352911
0.975410	-11.603310	5.639239
0.976016	-8.823411	-3.115915
0.976621	-5.939630	-11.788105
0.977227	-3.029118	-20.558984
0.977832	-0.111318	-29.177492
0.978437	2.875738	-37.353795
0.979043	5.801436	-45.662136
0.979648	8.695545	-53.556469
0.980254	11.557456	-60.841315
0.980859	14.347683	-68.054855
0.981465	16.979354	-74.797180
0.982070	19.570322	-81.050668
0.982676	22.147926	-86.730457
0.983281	24.450941	-91.888059
0.983887	26.599653	-96.434818
0.984492	28.620790	-100.408690
0.985098	30.508886	-103.728339
0.985703	32.101132	-106.286671
0.986309	33.579169	-108.334203
0.986914	34.885284	-109.604693
0.987520	35.826902	-109.976134
0.988125	36.581411	-109.937634
0.988730	37.132410	-109.112331
0.989336	37.454383	-107.435697
0.989941	37.599574	-105.222507
0.990547	37.363866	-102.281348
0.991152	36.998153	-98.621437
0.991758	36.340843	-94.417922
0.992363	35.457545	-89.631489
0.992969	34.374380	-84.297927
0.993574	32.982608	-78.355961
0.994180	31.446859	-71.960675
0.994785	29.767742	-64.978134
0.995391	27.835906	-57.838068
0.995996	25.758271	-50.216486
0.996602	23.551848	-42.007377
0.997207	21.212382	-33.815619
0.997812	18.663331	-25.397473
0.998418	16.032876	-16.770290
0.999023	13.271809	-8.014051
0.999629	10.520461	0.738392
1.000234	7.654905	9.507373
1.000840	4.690327	18.238126
1.001445	1.789536	26.844975
1.002051	-1.085133	35.227333
1.002656	-4.015691	43.429664
1.003262	-6.912837	51.345959
1.003867	-9.765636	59.063248
1.004473	-12.617220	66.072360
1.005078	-15.246461	72.850745
1.005684	-17.903646	79.389998
1.006289	-20.478212	85.148684
1.006895	-22.708936	90.406060
1.007500	-24.946342	95.082417
1.008105	-26.966264	99.228996
1.008711	-28.900530	102.661975
1.009316	-30.619742	105.389488
1.009922	-32.078946	107.528932
1.010527	-33.367444	109.015236
1.011133	-34.425702	109.666749
1.011738	-35.281663	109.585682
1.012344	-35.879438	108.945557
1.012949	-36.237253	107.823915
1.013555	-36.429829	105.565448
1.014160	-36.322910	102.804044
1.014766	-36.018555	99.568986
1.015371	-35.397087	95.617345
1.015977	-34.584258	91.020429
1.016582	-33.577638	85.846830
1.017187	-32.326197	80.184936
1.017793	-30.874283	73.996518
1.018398	-29.154463	67.308959
1.019004	-27.292489	60.172148
1.019609	-25.248267	52.707546
1.020215	-23.083760	45.048007
1.020820	-20.716958	36.730990
1.021426	-18.212861	28.505613
1.022031	-15.680820	20.208659
1.022637	-12.967138	11.509357
1.023242	-10.173266	2.698351
1.023848	-7.373319	-6.051923
1.024453	-4.407526	-14.678835
1.025059	-1.501875	-23.352652
1.025664	1.439619	-31.890093
1.026270	4.346485	-40.216870
1.026875	7.289193	-48.222094
1.027480	10.124374	-55.944806
1.028086	13.000258	-63.461192
1.028691	15.735203	-70.449698
1.029297	18.375378	-76.813805
1.029902	20.956627	-83.068106
1.030508	23.353804	-88.638631
1.031113	25.583920	-93.399578
1.031719	27.655480	-97.820264
1.032324	29.660823	-101.546871
1.032930	31.390970	-104.669413
1.033535	32.933401	-107.026570
1.034141	34.310593	-108.762580
1.034746	35.425348	-109.781466
1.035352	36.411920	-110.072925
1.035957	37.033388	-109.649971
1.036563	37.506627	-108.537547
1.037168	37.696166	-106.887212
1.037773	37.764813	-104.289567
1.038379	37.369941	-100.965851
1.038984	36.846280	-97.302959
1.039590	36.150697	-92.941378
1.040195	35.221837	-87.931538
1.040801	34.022033	-82.285370
1.041406	32.608391	-76.246883
1.042012	30.921983	-69.710342
1.042617	29.168144	-62.676015
1.043223	27.160371	-55.208974
1.043828	24.941190	-47.513374
1.044434	22.701961	-39.491070
1.045039	20.293242	-31.056927
1.045645	17.680404	-22.520842
1.046250	14.998311	-14.066365
1.046855	12.253646	-5.175648
1.047461	9.414212	3.735131
1.048066	6.474541	12.420064
1.048672	3.530011	21.102557
1.049277	0.645622	29.673075
1.049883	-2.375453	38.020187
1.050488	-5.281712	46.129251
1.051094	-8.221990	53.899681
1.051699	-11.057779	61.364282
1.052305	-13.841931	68.506245
1.052910	-16.575053	75.114906
1.053516	-19.149012	81.105132
1.054121	-21.645819	86.964405
1.054727	-24.022341	92.045822
1.055332	-26.167408	96.348839
1.055937	-28.140553	100.277705
1.056543	-29.983087	103.582171
1.057148	-31.541920	106.160837
1.057754	-33.063089	107.954597
1.058359	-34.228873	109.161372
1.058965	-35.223343	109.625538
1.059570	-36.068977	109.400775
1.060176	-36.633948	108.503082
1.060781	-36.928583	106.784966
1.061387	-36.964425	104.641997
1.061992	-36.728717	101.724426
1.062598	-36.275525	97.968266
1.063203	-35.627935	94.001985
1.063809	-34.749497	89.252696
1.064414	-33.631705	83.843219
1.065020	-32.250260	78.070435
1.065625	-30.741849	71.654815
1.066230	-28.960672	64.842268
1.066836	-27.017294	57.643098
1.067441	-24.966996	50.081705
1.068047	-22.600194	42.228040
1.068652	-20.134977	34.018931
1.069258	-17.644853	25.603767
1.069863	-14.979770	16.994749
1.070469	-12.190758	8.484420
1.071074	-9.339782	-0.280223
1.071680	-6.449926	-9.175278
1.072285	-3.498713	-17.683166
1.072891	-0.462450	-26.184548
1.073496	2.499091	-34.728225
1.074102	5.551148	-42.876602
1.074707	8.495679	-50.777985
1.075312	11.432920	-58.447285
1.075918	14.261419	-65.738909
1.076523	16.990289	-72.569350
1.077129	19.638362	-78.923696
1.077734	22.188020	-84.757212
1.078340	24.633190	-90.184583
1.078945	26.921625	-95.013312
1.079551	28.993185	-98.916421
1.080156	30.872169	-102.474388
1.080762	32.600493	-105.432357
1.081367	34.099185	-107.528421
1.081973	35.379178	-108.964297
1.082578	36.526737	-109.769808
1.083184	37.403960	-109.836233
1.083789	38.003558	-109.160862
1.084395	38.457965	-107.722546
1.085000	38.572782	-105.750115
1.085605	38.505957	-103.105295
1.086211	38.102580	-99.680179
1.086816	37.499945	-95.565864
1.087422	36.625151	-91.145720
1.088027	35.615494	-86.006012
1.088633	34.292368	-79.982709
1.089238	32.782135	-73.781277
1.089844	31.114559	-67.191594
1.090449	29.203378	-59.995135
1.091055	27.190746	-52.388736
1.091660	24.913245	-44.512568
1.092266	22.534293	-36.407570
1.092871	20.032626	-28.071032
1.093477	17.274597	-19.497532
1.094082	14.466145	-10.785757
1.094688	11.707508	-2.155863
1.095293	8.796389	6.604985
1.095898	5.822699	15.553993
1.096504	2.890318	24.022297
1.097109	-0.158702	32.400317
1.097715	-3.134823	40.785658
1.098320	-6.166225	48.840497
1.098926	-9.142953	56.500308
1.099531	-12.040099	63.776478
1.100137	-14.856449	70.724858
1.100742	-17.540364	77.229136
1.101348	-20.181147	83.196045
1.101953	-22.667018	88.583290
1.102559	-24.940267	93.405240
1.103164	-27.220197	97.780106
1.103770	-29.158108	101.317468
1.104375	-31.014614	104.182983
1.104980	-32.659105	106.709593
1.105586	-34.078214	108.346914
1.106191	-35.194791	109.221833
1.106797	-36.079304	109.437377
1.107402	-36.853861	108.958029
1.108008	-37.314343	107.820662
1.108613	-37.448599	106.021208
1.109219	-37.533649	103.486464
1.109824	-37.252986	100.346300
1.110430	-36.769419	96.525613
1.111035	-36.058650	92.076459
1.111641	-35.019225	87.109999
1.112246	-33.809701	81.756645
1.112852	-32.374797	75.616216
1.113457	-30.729699	68.965530
1.114062	-28.876838	62.192297
1.114668	-26.891542	54.857293
1.115273	-24.736148	47.148951
1.115879	-22.371776	39.148065
1.116484	-19.865249	30.909403
1.117090	-17.236616	22.511320
1.117695	-14.512606	13.854855
1.118301	-11.663452	5.235535
1.118906	-8.736539	-3.478680
1.119512	-5.842430	-12.133246
1.120117	-2.760605	-20.945066
1.120723	0.224627	-29.453496
1.121328	3.249955	-37.543040
1.121934	6.201776	-45.769230
1.122539	9.228926	-53.654074
1.123145	12.126680	-61.131418
1.123750	15.001956	-68.146495
1.124355	17.795828	-74.844627
1.124961	20.532595	-81.011897
1.125566	22.969867	-86.737506
1.126172	25.309940	-91.845221
1.126777	27.620853	-96.319319
1.127383	29.651710	-100.299698
1.127988	31.561069	-103.618263
1.128594	33.210419	-106.054317
1.129199	34.686633	-108.113237
1.129805	36.040133	-109.452592
1.130410	37.060118	-109.768723
1.131016	37.836497	-109.508986
1.131621	38.320671	-108.658468
1.132227	38.644466	-107.115770
1.132832	38.745310	-104.829647
1.133438	38.525397	-101.806880
1.134043	38.224687	-98.187909
1.134648	37.514525	-93.986834
1.135254	36.638516	-89.128824
1.135859	35.433852	-83.704435
1.136465	34.107690	-77.861430
1.137070	32.564651	-71.514404
1.137676	30.740342	-64.381388
1.138281	28.762337	-57.175440
1.138887	26.630635	-49.641973
1.139492	24.359209	-41.624278
1.140098	21.909787	-33.320817
1.140703	19.327324	-24.892639
1.141309	16.713878	-16.261660
1.141914	13.874444	-7.591910
1.142520	10.928091	1.170564
1.143125	8.039450	9.915958
1.143730	5.101601	18.630715
1.144336	2.093891	27.133452
1.144941	-0.868257	35.660861
1.145547	-3.879005	43.744440
1.146152	-6.821105	51.539813
1.146758	-9.733439	59.313496
1.147363	-12.612968	66.483114
1.147969	-15.372820	73.233844
1.148574	-18.106550	79.484350
1.149180	-20.687798	85.256863
1.149785	-23.112920	90.472757
1.150391	-25.397711	95.135286
1.150996	-27.479598	99.144134
1.151602	-29.356152	102.571419
1.152207	-31.119104	105.337703
1.152813	-32.679152	107.380355
1.153418	-33.959753	108.593638
1.154023	-35.114602	109.485366
1.154629	-36.047107	109.443613
1.155234	-36.663715	108.526941
1.155840	-37.129664	107.210902
1.156445	-37.210461	105.179908
1.157051	-37.076812	102.451853
1.157656	-36.748157	99.057374
1.158262	-36.172859	95.106818
1.158867	-35.287738	90.499598
1.159473	-34.235556	85.326271
1.160078	-33.047294	79.594698
1.160684	-31.609352	73.295118
1.161289	-29.868878	66.729024
1.161895	-28.020876	59.642370
1.162500	-25.941419	51.992320
1.163105	-23.702191	44.420082
1.163711	-21.372446	36.330268
1.164316	-18.819749	27.917273
1.164922	-16.220884	19.404504
1.165527	-13.460424	10.793046
1.166133	-10.691459	2.059853
1.166738	-7.751181	-6.689065
1.167344	-4.875297	-15.349055
1.167949	-1.836605	-23.990337
1.168555	1.151058	-32.469486
1.169160	4.181853	-40.757493
1.169766	7.089327	-48.832666
1.170371	9.991333	-56.408971
1.170977	12.909741	-63.818263
1.171582	15.675668	-70.964021
1.172187	18.357154	-77.274717
1.172793	20.951767	-83.238372
1.173398	23.471658	-88.764433
1.174004	25.793506	-93.684259
1.174609	27.875393	-97.941186
1.175215	29.848539	-101.635258
1.175820	31.638828	-104.686494
1.176426	33.200699	-107.090013
1.177031	34.545694	-108.744144
1.177637	35.752180	-109.668136
1.178242	36.689546	-109.935736
1.178848	37.418540	-109.668950
1.179453	37.904537	-108.260729
1.180059	38.102580	-106.415455
1.180664	38.098935	-104.033626
1.181270	37.803692	-100.774437
1.181875	37.291574	-96.901423
1.182480	36.566832	-92.451998
1.183086	35.618531	-87.455986
1.183691	34.432092	-81.831507
1.184297	32.974103	-75.714395
1.184902	31.441999	-69.093804
1.185508	29.717927	-62.078999
1.186113	27.683425	-54.683805
1.186719	25.458169	-46.791098
1.187324	23.157583	-38.763643
1.187930	20.737321	-30.605234
1.188535	18.114155	-21.912980
1.189141	15.412015	-13.125291
1.189746	12.708660	-4.415415
1.190352	9.873479	4.312356
1.190957	7.001240	13.089742
1.191563	4.016007	21.728041
1.192168	1.103673	30.272532
1.192773	-1.908897	38.587380
1.193379	-4.848568	46.679634
1.193984	-7.724451	54.531944
1.194590	-10.622205	61.898398
1.195195	-13.339532	68.848405
1.195801	-16.082982	75.707314
1.196406	-18.669090	81.717061
1.197012	-21.154355	87.169646
1.197617	-23.506577	92.222324
1.198223	-25.645569	96.802160
1.198828	-27.720774	100.558590
1.199434	-29.509240	103.732646
1.200039	-31.204153	106.266576
1.200645	-32.589850	108.094768
1.201250	-33.850403	109.212073
1.201855	-34.889828	109.612253
1.202461	-35.651628	109.286090
1.203066	-36.220851	108.431776
1.203672	-36.561656	106.685463
1.204277	-36.642453	104.262423
1.204883	-36.437727	101.568529
1.205488	-36.062295	97.994565
1.206094	-35.304748	93.645999
1.206699	-34.445749	88.802359
1.207305	-33.351042	83.493197
1.207910	-31.999972	77.605999
1.208516	-30.460578	71.192276
1.209121	-28.701271	64.346110
1.209727	-26.802848	57.143144
1.210332	-24.747691	49.560604
1.210937	-22.435563	41.582493
1.211543	-20.052965	33.371485
1.212148	-17.517279	25.136077
1.212754	-14.866776	16.427285
1.213359	-12.114214	7.602723
1.213965	-9.310622	-0.951528
1.214570	-6.453571	-9.641070
1.215176	-3.527265	-18.410322
1.215781	-0.625866	-27.051875
1.216387	2.384882	-35.411187
1.216992	5.325767	-43.590473
1.217598	8.213801	-51.511919
1.218203	11.124312	-59.156547
1.218809	13.944306	-66.406418
1.219414	16.674391	-73.104008
1.220020	19.315781	-79.585240
1.220625	21.876983	-85.515819
1.221230	24.168456	-90.587475
1.221836	26.418012	-95.329172
1.222441	28.490179	-99.549768
1.223047	30.418369	-102.944518
1.223652	32.127862	-105.696975
1.224258	33.560336	-107.823134
1.224863	34.912621	-109.241115
1.225469	35.986673	-109.977760
1.226074	36.825017	-109.977218
1.226680	37.311014	-109.283139
1.227285	37.728970	-107.970354
1.227891	37.926407	-105.894896
1.228496	37.780608	-102.980036
1.229102	37.372978	-99.708105
1.229707	36.867542	-95.718507
1.230312	36.077190	-90.903335
1.230918	34.956968	-85.723229
1.231523	33.689125	-79.866667
1.232129	32.204406	-73.618602
1.232734	30.533794	-66.861907
1.233340	28.647520	-59.677377
1.233945	26.538903	-52.082365
1.234551	24.390799	-44.191556
1.235156	22.042829	-36.024471
1.235762	19.520507	-27.600631
1.236367	16.844490	-19.108197
1.236973	14.152070	-10.382053
1.237578	11.339973	-1.414066
1.238184	8.457407	7.162417
1.238789	5.541428	15.869311
1.239395	2.603580	24.620127
