LabVIEW Measurement	
Writer_Version	2
Reader_Version	2
Separator	Tab
Decimal_Separator	.
Multi_Headings	No
X_Columns	One
Time_Pref	Absolute
Operator	AlunosGDS-JT
Date	2019/10/09
Time	15:19:08.4651639249999940857
***End_of_Header***	
	
Channels	2		
Samples	2048	2048	
Date	2019/10/09	2019/10/09	
Time	15:28:09.3188943937499902283	15:28:09.3188943937499902283	
Y_Unit_Label	g	Newtons	
X_Dimension	Time	Time	
X0	0.0000000000000000E+0	0.0000000000000000E+0	
Delta_X	0.000605	0.000605	
***End_of_Header***			
X_Value	Acceleration (Trigger)	Force (Trigger)	Comment
0.000000	-179.113516	-3.912750
0.000605	-181.957202	-12.356924
0.001211	-183.577393	-20.580132
0.001816	-184.168486	-28.622229
0.002422	-183.615057	-36.957140
0.003027	-181.660137	-45.685181
0.003633	-178.663969	-53.958547
0.004238	-174.619871	-61.352927
0.004844	-169.128719	-67.903296
0.005449	-161.942047	-74.327322
0.006055	-153.111493	-80.092514
0.006660	-143.643675	-85.044875
0.007266	-133.346019	-89.311833
0.007871	-122.149269	-93.537310
0.008477	-110.388763	-96.986014
0.009082	-98.040202	-99.479275
0.009687	-84.715395	-101.330243
0.010293	-70.325649	-102.754731
0.010898	-55.386119	-103.257396
0.011504	-40.315978	-102.597208
0.012109	-24.789000	-101.084062
0.012715	-9.320950	-99.488494
0.013320	5.794146	-97.484341
0.013926	20.739143	-94.571921
0.014531	35.294128	-91.107763
0.015137	50.303520	-87.407997
0.015742	64.932012	-82.788306
0.016348	79.027123	-77.142950
0.016953	92.824561	-71.191224
0.017559	106.324934	-64.975693
0.018164	118.869716	-58.347511
0.018770	129.949827	-50.983768
0.019375	139.986868	-43.371947
0.019980	149.283372	-36.048059
0.020586	157.639472	-28.265700
0.021191	165.074610	-19.438155
0.021797	171.727901	-10.619558
0.022402	177.542848	-1.711490
0.023008	182.066260	7.227758
0.023613	184.871674	16.431894
0.024219	186.245221	24.879051
0.024824	186.016195	32.913827
0.025430	184.365630	40.775355
0.026035	181.325722	48.684329
0.026641	177.373964	56.144864
0.027246	172.605732	63.201694
0.027852	166.610966	69.957575
0.028457	159.171576	76.820551
0.029062	150.615002	82.473498
0.029668	140.890821	87.332863
0.030273	129.653977	91.748940
0.030879	117.397755	95.544142
0.031484	104.575954	98.404235
0.032090	91.299140	100.437669
0.032695	77.792692	102.156598
0.033301	63.639262	103.392384
0.033906	49.206383	103.764638
0.034512	34.473402	103.152168
0.035117	19.208255	101.527318
0.035723	3.505103	99.250414
0.036328	-12.436187	95.890097
0.036934	-28.042139	91.894263
0.037539	-43.363783	87.909545
0.038145	-58.286910	83.510007
0.038750	-72.396601	79.090677
0.039355	-85.720193	74.160006
0.039961	-98.268013	68.914830
0.040566	-110.433718	62.822390
0.041172	-121.940290	55.546221
0.041777	-133.222089	47.747594
0.042383	-143.926160	39.818556
0.042988	-153.655201	31.315548
0.043594	-161.920178	22.030616
0.044199	-168.925208	13.346768
0.044805	-174.848897	4.891749
0.045410	-179.214360	-3.329832
0.046016	-182.132768	-11.600216
0.046621	-183.879925	-19.855958
0.047227	-184.655697	-28.245908
0.047832	-184.277227	-36.428447
0.048438	-182.371514	-45.301269
0.049043	-179.309737	-53.838168
0.049648	-175.354941	-61.138739
0.050254	-170.060010	-67.599908
0.050859	-162.864833	-74.190675
0.051465	-154.127225	-80.049676
0.052070	-144.790019	-85.078766
0.052676	-134.607787	-89.282823
0.053281	-123.385522	-93.386293
0.053887	-111.572772	-97.099615
0.054492	-99.255193	-99.577151
0.055098	-86.084083	-101.115783
0.055703	-71.663354	-102.553015
0.056309	-56.538538	-103.190971
0.056914	-41.574101	-102.481167
0.057520	-26.139463	-101.161061
0.058125	-10.711507	-99.773174
0.058730	4.392047	-97.843852
0.059336	19.324286	-95.003009
0.059941	33.896889	-91.614223
0.060547	48.882588	-87.987932
0.061152	63.595522	-83.639094
0.061758	77.762317	-77.851399
0.062363	91.535456	-71.613636
0.062969	105.053446	-65.591688
0.063574	117.751317	-58.932598
0.064180	128.879420	-51.430582
0.064785	138.996043	-43.821471
0.065391	148.324136	-36.420855
0.065996	156.815709	-28.609486
0.066602	164.317671	-19.970644
0.067207	170.967316	-11.167772
0.067812	176.938390	-2.257535
0.068418	181.701155	6.609323
0.069023	184.579468	15.767910
0.069629	185.973671	24.250313
0.070234	185.902594	32.173928
0.070840	184.442174	40.174272
0.071445	181.411379	48.147231
0.072051	177.612710	55.684223
0.072656	172.977519	62.866584
0.073262	167.123085	69.773210
0.073867	159.892066	76.573014
0.074473	151.350071	82.597131
0.075078	141.667200	87.570097
0.075684	130.687326	91.815637
0.076289	118.417132	95.520825
0.076895	105.537012	98.436227
0.077500	92.435764	100.444718
0.078105	78.973663	102.134095
0.078711	64.935050	103.173858
0.079316	50.491844	103.820761
0.079922	35.866389	103.432240
0.080527	20.700871	101.692704
0.081133	4.978280	99.422307
0.081738	-10.838473	96.364836
0.082344	-26.520363	92.320200
0.082949	-41.815277	88.075745
0.083555	-56.745694	83.986102
0.084160	-70.956229	79.590360
0.084766	-84.205706	74.723132
0.085371	-96.758386	69.290067
0.085977	-108.931381	63.339425
0.086582	-120.524826	56.326517
0.087188	-131.710641	48.601094
0.087793	-142.507658	40.259405
0.088398	-152.403760	32.037824
0.089004	-160.874070	22.948102
0.089609	-167.999993	14.032984
0.090215	-174.043965	5.464906
0.090820	-178.586209	-2.540317
0.091426	-181.704484	-11.013231
0.092031	-183.522718	-19.433817
0.092637	-184.341014	-27.691187
0.093242	-184.148438	-35.832786
0.093848	-182.389131	-44.518261
0.094453	-179.446423	-53.344992
0.095059	-175.467327	-60.719851
0.095664	-170.332775	-66.975779
0.096270	-163.360549	-73.623211
0.096875	-154.757198	-79.782348
0.097480	-145.447329	-84.757754
0.098086	-135.343464	-88.950153
0.098691	-124.415227	-93.233650
0.099297	-112.598832	-96.876209
0.099902	-100.294618	-99.432642
0.100508	-87.226782	-101.252701
0.101113	-72.959750	-102.737108
0.101719	-57.922413	-103.478363
0.102324	-42.883254	-102.869146
0.102930	-27.573760	-101.559614
0.103535	-12.140944	-100.324371
0.104141	3.068314	-98.285243
0.104746	17.918542	-95.382312
0.105352	32.446190	-92.104959
0.105957	47.462871	-88.344461
0.106563	62.234732	-83.920793
0.107168	76.431295	-78.339694
0.107773	90.279762	-72.242103
0.108379	103.752190	-65.940897
0.108984	116.499269	-59.427943
0.109590	127.641344	-52.175090
0.110195	137.703900	-44.634303
0.110801	147.073303	-37.221757
0.111406	155.747124	-29.346673
0.112012	163.373015	-20.916055
0.112617	170.214630	-12.181236
0.113223	176.151683	-3.124049
0.113828	181.008610	5.805167
0.114434	183.965898	14.786168
0.115039	185.393512	23.417147
0.115645	185.490712	31.490966
0.116250	184.092865	39.387739
0.116855	181.319648	47.304576
0.117461	177.623645	55.127604
0.118066	173.136683	62.366359
0.118672	167.477862	69.346732
0.119277	160.336145	76.029138
0.119883	151.933267	82.161163
0.120488	142.345773	87.295719
0.121094	131.444266	91.295620
0.121699	119.252438	95.139082
0.122305	106.403301	98.330760
0.122910	93.398644	100.424655
0.123516	80.010658	102.044082
0.124121	66.126348	103.456641
0.124727	51.709872	104.079956
0.125332	37.119652	103.648868
0.125938	21.920115	102.063874
0.126543	6.190233	99.835501
0.127148	-9.683624	96.848522
0.127754	-25.344251	92.839945
0.128359	-40.588136	88.409228
0.128965	-55.462056	84.629752
0.129570	-69.740023	80.143725
0.130176	-83.050250	75.081016
0.130781	-95.752981	69.692144
0.131387	-107.954529	64.021845
0.131992	-119.602648	56.892625
0.132598	-130.824305	48.998020
0.133203	-141.618892	40.927185
0.133809	-151.508919	32.877768
0.134414	-160.045446	23.745750
0.135020	-167.078422	14.755802
0.135625	-173.081693	6.270146
0.136230	-177.811045	-1.692240
0.136836	-181.072081	-10.231850
0.137441	-183.041582	-18.905396
0.138047	-184.076146	-27.007411
0.138652	-184.017827	-35.191577
0.139258	-182.435909	-43.806017
0.139863	-179.361374	-52.627326
0.140469	-175.379241	-60.213391
0.141074	-170.173004	-66.620064
0.141680	-163.446814	-73.023484
0.142285	-155.009309	-79.275616
0.142891	-145.746217	-84.402852
0.143496	-135.891425	-88.790732
0.144102	-125.089547	-93.008888
0.144707	-113.322359	-96.818188
0.145313	-101.089829	-99.309551
0.145918	-88.049938	-101.252972
0.146523	-73.907443	-102.422061
0.147129	-58.740102	-103.200189
0.147734	-43.624399	-102.787537
0.148340	-28.487433	-101.501051
0.148945	-13.108077	-100.045112
0.149551	1.969355	-98.435988
0.150156	16.893089	-95.888231
0.150762	31.414662	-92.469350
0.151367	46.312275	-88.722138
0.151973	61.207457	-84.461957
0.152578	75.486639	-79.023470
0.153184	89.368519	-72.914492
0.153789	102.750430	-66.328334
0.154395	115.612325	-59.991611
0.155000	127.032026	-53.005273
0.155605	137.018037	-45.318350
0.156211	146.372253	-37.632240
0.156816	155.100141	-30.109347
0.157422	162.818372	-21.716144
0.158027	169.703726	-12.756562
0.158633	175.630452	-3.774205
0.159238	180.652617	4.970375
0.159844	183.854726	13.941073
0.160449	185.299351	22.724695
0.161055	185.422065	30.990199
0.161660	184.098332	38.534239
0.162266	181.472736	46.400647
0.162871	177.626075	54.497782
0.163477	173.032801	61.780187
0.164082	167.522209	68.514921
0.164687	160.484374	75.247486
0.165293	152.109441	81.545439
0.165898	142.630688	86.734220
0.166504	131.899280	90.946412
0.167109	119.808904	94.698775
0.167715	107.029629	97.938714
0.168320	93.855481	100.209924
0.168926	80.489972	101.741236
0.169531	66.614775	103.047785
0.170137	52.208626	103.955239
0.170742	37.521207	103.523608
0.171348	22.479011	101.946477
0.171953	6.861516	99.843364
0.172559	-9.051829	96.934740
0.173164	-24.798113	93.070944
0.173770	-40.027418	88.705296
0.174375	-54.824793	84.637885
0.174980	-69.171408	80.273593
0.175586	-82.616498	75.531896
0.176191	-95.312547	70.131366
0.176797	-107.475215	64.446155
0.177402	-119.170111	57.575046
0.178008	-130.425180	49.625674
0.178613	-141.145653	41.651087
0.179219	-151.109187	33.630681
0.179824	-159.793336	24.412988
0.180430	-166.963605	15.369086
0.181035	-173.060430	6.834627
0.181641	-177.782493	-1.295314
0.182246	-181.148626	-9.587387
0.182852	-183.120556	-18.074670
0.183457	-183.994742	-26.345053
0.184062	-183.977125	-34.461709
0.184668	-182.460816	-42.918897
0.185273	-179.520538	-51.725565
0.185879	-175.585182	-59.381852
0.186484	-170.479789	-65.999731
0.187090	-163.924913	-72.471745
0.187695	-155.550587	-78.519178
0.188301	-146.240718	-83.890427
0.188906	-136.317887	-88.322771
0.189512	-125.488672	-92.361714
0.190117	-113.669239	-96.205175
0.190723	-101.347407	-98.993420
0.191328	-88.425370	-100.885056
0.191934	-74.324792	-102.225767
0.192539	-59.305680	-103.198291
0.193145	-44.247689	-102.929878
0.193750	-29.062124	-101.838059
0.194355	-13.668187	-100.279364
0.194961	1.401346	-98.303408
0.195566	16.491535	-95.946794
0.196172	31.070212	-92.567226
0.196777	45.927122	-88.488157
0.197383	60.865437	-84.214150
0.197988	75.198079	-78.974939
0.198594	89.074491	-72.895513
0.199199	102.348268	-66.511885
0.199805	115.135441	-60.222338
0.200410	126.632294	-53.304595
0.201016	136.781721	-45.864666
0.201621	146.052710	-38.161475
0.202227	154.820086	-30.479432
0.202832	162.721780	-22.433268
0.203437	169.646621	-13.528996
0.204043	175.606760	-4.222103
0.204648	180.602803	4.382577
0.205254	183.904541	13.375507
0.205859	185.523516	22.171872
0.206465	185.586696	30.417312
0.207070	184.259318	38.193165
0.207676	181.770409	46.049270
0.208281	178.019732	53.784995
0.208887	173.606277	61.207572
0.209492	168.158257	68.090340
0.210098	161.322110	74.715269
0.210703	152.975729	80.985024
0.211309	143.382160	86.103042
0.211914	132.580282	90.319300
0.212520	120.568881	94.305645
0.213125	107.736753	97.531485
0.213730	94.667095	99.788597
0.214336	81.394533	101.644444
0.214941	67.614712	103.038838
0.215547	53.265061	103.805307
0.216152	38.533902	103.590305
0.216758	23.364739	102.164732
0.217363	7.684672	99.848786
0.217969	-8.256010	96.904102
0.218574	-24.052108	93.076637
0.219180	-39.326975	88.968016
0.219785	-54.192998	84.853972
0.220391	-68.405963	80.301519
0.220996	-81.949468	75.663934
0.221602	-94.759726	70.589295
0.222207	-107.070015	64.661970
0.222812	-118.910710	57.602700
0.223418	-130.293961	49.952921
0.224023	-141.139579	41.969116
0.224629	-151.053905	33.821552
0.225234	-159.612302	24.831875
0.225840	-166.810516	15.970983
0.226445	-172.977811	7.559886
0.227051	-177.748473	-0.605844
0.227656	-181.201478	-9.106683
0.228262	-183.449211	-17.437798
0.228867	-184.624107	-25.891191
0.229473	-184.654482	-34.219053
0.230078	-183.171586	-42.618763
0.230684	-180.322432	-51.296646
0.231289	-176.348803	-58.910908
0.231895	-171.311451	-65.490559
0.232500	-164.779659	-71.923260
0.233105	-156.543842	-78.165090
0.233711	-147.402857	-83.489434
0.234316	-137.659844	-88.010978
0.234922	-126.898669	-92.220187
0.235527	-115.225035	-96.125736
0.236133	-102.917783	-99.007519
0.236738	-89.899762	-100.715875
0.237344	-75.779744	-101.971723
0.237949	-60.691378	-103.119936
0.238555	-45.632779	-102.682612
0.239160	-30.452681	-101.474481
0.239766	-15.091549	-100.114791
0.240371	0.101913	-98.435717
0.240977	15.060275	-95.997494
0.241582	29.641990	-92.620095
0.242187	44.590632	-89.013596
0.242793	59.674138	-84.792458
0.243398	74.091829	-79.478959
0.244004	87.971279	-73.327143
0.244609	101.508102	-67.166109
0.245215	114.438644	-60.924821
0.245820	125.889327	-53.652447
0.246426	136.163899	-46.201674
0.247031	145.621389	-38.751171
0.247637	154.575873	-30.989688
0.248242	162.516446	-22.532229
0.248848	169.559142	-13.706311
0.249453	175.748914	-4.685726
0.250059	180.762574	4.131244
0.250664	184.193101	13.104112
0.251270	185.831517	21.768439
0.251875	186.126152	29.813247
0.252480	185.001070	37.707580
0.253086	182.560153	45.603541
0.253691	179.011165	53.136737
0.254297	174.646309	60.727953
0.254902	169.285161	67.820571
0.255508	162.394947	74.485084
0.256113	154.194973	80.741283
0.256719	144.727155	86.015740
0.257324	133.962942	90.453778
0.257930	122.086405	94.251149
0.258535	109.349654	97.510879
0.259141	96.319483	99.840381
0.259746	82.993461	101.667490
0.260352	69.214248	102.996271
0.260957	54.903476	103.705533
0.261562	40.175962	103.684656
0.262168	25.051754	102.225735
0.262773	9.412997	99.921177
0.263379	-6.522825	97.300215
0.263984	-22.290979	93.545411
0.264590	-37.718935	89.248358
0.265195	-52.697952	85.196131
0.265801	-67.090735	80.896366
0.266406	-80.711392	76.163345
0.267012	-93.465153	70.895666
0.267617	-105.846519	65.188765
0.268223	-117.657447	58.326061
0.268828	-129.074718	50.699869
0.269434	-140.010852	42.589178
0.270039	-150.140840	34.524578
0.270645	-158.982937	25.646334
0.271250	-166.374335	16.460091
0.271855	-172.757290	7.873848
0.272461	-177.775203	-0.165538
0.273066	-181.299892	-8.531899
0.273672	-183.539120	-17.072594
0.274277	-184.742569	-25.373885
0.274883	-184.879255	-33.537446
0.275488	-183.559775	-42.105253
0.276094	-180.799923	-50.908938
0.276699	-177.164670	-58.683164
0.277305	-172.287696	-65.184730
0.277910	-165.857356	-71.633157
0.278516	-157.623969	-78.165361
0.279121	-148.547986	-83.240812
0.279727	-138.761234	-87.555489
0.280332	-128.013423	-91.918967
0.280938	-116.360444	-95.950589
0.281543	-104.159504	-98.606797
0.282148	-91.323124	-100.567569
0.282754	-77.254135	-102.102134
0.283359	-62.328578	-103.181210
0.283965	-47.321616	-102.920659
0.284570	-32.136051	-101.831552
0.285176	-16.672253	-100.565943
0.285781	-1.397993	-98.878192
0.286387	13.648456	-96.257773
0.286992	28.272088	-93.151771
0.287598	43.259610	-89.567233
0.288203	58.253206	-85.213244
0.288809	72.528136	-79.895407
0.289414	86.512683	-73.907350
0.290020	100.053150	-67.681245
0.290625	113.137389	-61.281079
0.291230	124.794620	-54.312636
0.291836	135.286675	-46.801672
0.292441	144.918516	-39.299927
0.293047	153.859028	-31.701390
0.293652	161.774694	-23.385187
0.294258	168.895757	-14.695916
0.294863	175.094034	-5.593722
0.295469	180.290550	3.234636
0.296074	183.886924	12.073025
0.296680	185.709410	21.114487
0.297285	186.295036	29.429877
0.297891	185.261078	37.272697
0.298496	182.929511	45.178418
0.299102	179.339212	53.098779
0.299707	175.010199	60.402332
0.300312	169.686108	67.334987
0.300918	162.920431	74.049387
0.301523	154.731391	80.371740
0.302129	145.505357	85.728348
0.302734	135.035779	90.064443
0.303340	123.264946	93.996563
0.303945	110.561608	97.511150
0.304551	97.481622	99.676893
0.305156	84.179900	101.333193
0.305762	70.248205	102.878332
0.306367	55.860282	103.777652
0.306973	41.247585	103.632601
0.307578	26.288615	102.369431
0.308184	10.751310	100.377479
0.308789	-5.075771	97.668674
0.309395	-20.747333	93.942067
0.310000	-36.154634	89.655316
0.310605	-51.256972	85.588990
0.311211	-65.813780	81.321761
0.311816	-79.589956	76.359910
0.312422	-92.486478	71.264667
0.313027	-104.879386	65.820757
0.313633	-116.737699	58.920095
0.314238	-128.000666	51.267875
0.314844	-138.883948	43.352936
0.315449	-149.148192	35.339850
0.316055	-158.184080	26.358307
0.316660	-165.679360	17.206768
0.317266	-172.166197	8.579043
0.317871	-177.339629	0.423074
0.318477	-180.970629	-7.882827
0.319082	-183.299160	-16.483711
0.319688	-184.382324	-24.572170
0.320293	-184.626537	-32.727868
0.320898	-183.346544	-41.279678
0.321504	-180.653517	-49.988470
0.322109	-177.107565	-57.857589
0.322715	-172.411018	-64.629196
0.323320	-166.241901	-71.107446
0.323926	-158.225390	-77.588137
0.324531	-149.139687	-83.039909
0.325137	-139.353542	-87.532443
0.325742	-128.570496	-91.614765
0.326348	-116.910227	-95.643676
0.326953	-104.756672	-98.432735
0.327559	-92.043614	-100.568654
0.328164	-78.143509	-102.074209
0.328770	-63.400808	-103.113158
0.329375	-48.333096	-103.198291
0.329980	-33.153606	-102.100508
0.330586	-17.705603	-100.584379
0.331191	-2.446530	-98.944889
0.331797	12.734175	-96.495007
0.332402	27.430099	-93.207893
0.333008	42.261495	-89.536596
0.333613	57.266026	-85.536695
0.334219	71.620538	-80.392107
0.334824	85.568635	-74.426824
0.335430	99.090270	-68.194484
0.336035	112.227968	-61.958890
0.336641	123.981183	-55.115436
0.337246	134.406414	-47.344192
0.337852	144.077135	-39.739420
0.338457	153.044984	-32.271023
0.339062	161.030512	-23.978678
0.339668	168.204427	-15.042684
0.340273	174.430648	-6.157390
0.340879	179.745019	2.652531
0.341484	183.374197	11.574698
0.342090	185.326688	20.464059
0.342695	185.837592	28.572039
0.343301	184.922096	36.443327
0.343906	182.696840	44.241140
0.344512	179.163646	52.244466
0.345117	174.869868	59.510604
0.345723	169.724988	66.508600
0.346328	163.135484	73.554585
0.346934	155.115329	80.013043
0.347539	146.056355	85.398661
0.348145	135.528458	89.867607
0.348750	123.763700	93.839311
0.349355	111.064614	97.277441
0.349961	98.044163	99.697499
0.350566	84.774031	101.502375
0.351172	71.068932	102.933641
0.351777	56.816480	103.903183
0.352383	42.285794	103.748371
0.352988	27.326825	102.611817
0.353594	11.773117	100.587330
0.354199	-4.134760	97.647526
0.354805	-19.947869	94.094710
0.355410	-35.409844	90.053327
0.356016	-50.452041	85.892650
0.356621	-65.014316	81.673952
0.357227	-78.685395	77.046127
0.357832	-91.558832	71.867105
0.358438	-103.888561	66.274619
0.359043	-115.753556	59.597906
0.359648	-127.173864	51.869500
0.360254	-138.228460	43.896270
0.360859	-148.506677	35.757924
0.361465	-157.536490	26.828708
0.362070	-165.082799	17.950463
0.362676	-171.418977	9.397839
0.363281	-176.541380	1.093023
0.363887	-180.259860	-7.033394
0.364492	-182.680729	-15.542909
0.365098	-184.099231	-23.975967
0.365703	-184.505646	-32.230354
0.366309	-183.510568	-40.570417
0.366914	-180.954227	-49.456795
0.367520	-177.296496	-57.417283
0.368125	-172.466907	-64.110535
0.368730	-166.286248	-70.423670
0.369336	-158.273382	-76.783710
0.369941	-149.201044	-82.437470
0.370547	-139.637242	-87.200315
0.371152	-129.244816	-91.237089
0.371758	-117.812966	-95.524110
0.372363	-105.847734	-98.681898
0.372969	-93.061776	-100.706114
0.373574	-79.202373	-102.099965
0.374180	-64.237329	-103.177414
0.374785	-48.991014	-103.039412
0.375391	-33.880171	-101.897435
0.375996	-18.399362	-100.471320
0.376602	-3.272724	-98.853520
0.377207	11.660731	-96.750678
0.377812	26.257025	-93.594517
0.378418	40.909210	-89.921593
0.379023	56.029165	-86.126662
0.379629	70.601160	-80.964993
0.380234	84.723001	-74.882856
0.380840	98.381930	-68.666783
0.381445	111.628370	-62.377507
0.382051	123.459345	-55.564418
0.382656	133.875463	-48.140756
0.383262	143.372440	-40.620575
0.383867	152.258277	-33.139164
0.384473	160.339182	-24.921378
0.385078	167.585389	-16.026053
0.385684	174.041244	-6.960190
0.386289	179.472861	1.821805
0.386895	183.366907	10.984189
0.387500	185.406270	19.929130
0.388105	186.019233	27.974480
0.388711	185.093410	35.920056
0.389316	182.825629	43.694824
0.389922	179.385989	51.486673
0.390527	175.208243	59.005770
0.391133	170.158132	65.984245
0.391738	163.678585	72.809263
0.392344	155.773854	79.304323
0.392949	146.720348	84.730068
0.393555	136.251378	89.260288
0.394160	124.432553	93.272389
0.394766	111.748654	96.571704
0.395371	98.740960	99.051680
0.395977	85.478118	101.274088
0.396582	71.865966	102.778558
0.397187	57.730760	103.784159
0.397793	43.202505	103.906436
0.398398	28.286060	102.879959
0.399004	12.717773	100.785250
0.399609	-3.235059	98.065058
0.400215	-19.194574	94.361496
0.400820	-34.768329	90.097792
0.401426	-49.809311	85.922474
0.402031	-64.320556	81.601290
0.402637	-77.960653	77.197414
0.403242	-90.877830	72.191370
0.403848	-103.175969	66.522698
0.404453	-115.115686	59.988596
0.405059	-126.607071	52.553006
0.405664	-137.760688	44.523923
0.406270	-148.161619	36.411334
0.406875	-157.348166	27.575656
0.407480	-164.944898	18.521722
0.408086	-171.418370	9.892370
0.408691	-176.653159	1.704951
0.409297	-180.338227	-6.450747
0.409902	-182.734796	-15.026145
0.410508	-184.214655	-23.310356
0.411113	-184.724344	-31.653672
0.411719	-183.804596	-39.834585
0.412324	-181.495505	-48.660773
0.412930	-177.893057	-56.879372
0.413535	-173.186182	-63.528973
0.414141	-167.048047	-69.797644
0.414746	-159.143923	-76.163648
0.415352	-150.073408	-81.749899
0.415957	-140.510821	-86.497289
0.416563	-130.128722	-90.778346
0.417168	-118.768556	-95.036900
0.417773	-106.781455	-98.171099
0.418379	-94.041059	-100.373173
0.418984	-80.209601	-101.849175
0.419590	-65.227547	-103.079267
0.420195	-49.997634	-103.148404
0.420801	-34.728842	-101.829925
0.421406	-19.320326	-100.479996
0.422012	-4.130508	-98.964410
0.422617	10.892249	-96.772368
0.423223	25.467889	-93.641150
0.423828	40.157130	-90.033296
0.424434	55.301993	-86.103346
0.425039	70.010067	-81.038739
0.425645	84.162890	-75.109245
0.426250	97.976123	-68.775775
0.426855	111.214665	-62.643480
0.427461	123.120362	-55.890852
0.428066	133.645830	-48.513824
0.428672	143.147667	-41.210813
0.429277	152.145283	-33.580283
0.429883	160.260816	-25.314238
0.430488	167.599969	-16.588636
0.431094	174.141481	-7.466922
0.431699	179.648427	1.482086
0.432305	183.691310	10.492098
0.432910	185.804179	19.393659
0.433516	186.456022	27.642352
0.434121	185.511974	35.452638
0.434727	183.264241	43.265905
0.435332	179.955213	51.069412
0.435937	175.854618	58.453218
0.436543	170.876192	65.716103
0.437148	164.572819	72.466020
0.437754	156.747669	78.798676
0.438359	147.604254	84.456232
0.438965	137.139536	89.023054
0.439570	125.397256	92.889832
0.440176	112.693309	96.313593
0.440781	99.621828	98.922083
0.441387	86.404549	100.907799
0.441992	72.974038	102.546747
0.442598	58.812102	103.690621
0.443203	44.273520	103.932735
0.443809	29.315158	102.945571
0.444414	13.651493	100.747564
0.445020	-2.414941	98.100304
0.445625	-18.435205	94.626927
0.446230	-34.006530	90.253417
0.446836	-49.136205	86.083793
0.447441	-63.683901	81.974358
0.448047	-77.432132	77.527915
0.448652	-90.353561	72.447041
0.449258	-102.746470	67.014789
0.449863	-114.808900	60.470656
0.450469	-126.390195	52.929055
0.451074	-137.648909	44.826769
0.451680	-148.139142	36.717162
0.452285	-157.403448	28.054462
0.452891	-165.117426	18.896688
0.453496	-171.629778	10.231005
0.454102	-176.891297	2.275668
0.454707	-180.719734	-5.772122
0.455313	-183.287010	-14.424520
0.455918	-184.794814	-22.744790
0.456523	-185.354317	-31.021952
0.457129	-184.557890	-39.469380
0.457734	-182.197163	-48.447941
0.458340	-178.730793	-56.484343
0.458945	-174.166680	-63.268151
0.459551	-168.233271	-69.639307
0.460156	-160.302417	-76.068755
0.460762	-151.300548	-81.548995
0.461367	-141.698474	-86.114190
0.461973	-131.268991	-90.466824
0.462578	-119.889385	-94.708839
0.463184	-107.941771	-97.590622
0.463789	-95.313154	-99.946152
0.464395	-81.615346	-101.588082
0.465000	-66.673993	-102.740633
0.465605	-51.468381	-102.749309
0.466211	-36.259123	-101.940544
0.466816	-20.816587	-100.619083
0.467422	-5.542327	-99.110004
0.468027	9.660248	-96.866719
0.468633	24.314255	-93.897092
0.469238	39.110415	-90.420462
0.469844	54.239484	-86.374741
0.470449	68.830311	-81.204667
0.471055	83.012901	-75.624381
0.471660	96.859546	-69.192494
0.472266	110.147296	-62.765486
0.472871	122.305103	-55.954837
0.473477	132.989734	-48.731537
0.474082	142.690830	-41.250668
0.474687	151.751626	-33.751363
0.475293	160.015995	-25.727432
0.475898	167.426225	-17.115431
0.476504	173.934932	-8.180522
0.477109	179.513563	0.908116
0.477715	183.633598	9.781751
0.478320	185.967596	18.642915
0.478926	186.785285	27.215874
0.479531	186.073300	35.105327
0.480137	183.971365	42.850542
0.480742	180.681170	50.715052
0.481348	176.598800	58.309251
0.481953	171.560840	65.408376
0.482559	165.382003	72.273521
0.483164	157.695969	78.857239
0.483770	148.822890	84.464095
0.484375	138.542851	89.121201
0.484980	126.932397	93.066063
0.485586	114.359670	96.500940
0.486191	101.272394	99.064965
0.486797	87.905670	100.710691
0.487402	74.195711	102.426639
0.488008	60.056253	103.612266
0.488613	45.524960	103.748371
0.489219	30.671695	102.879959
0.489824	15.271684	101.066678
0.490430	-0.635586	98.488826
0.491035	-16.593886	95.014635
0.491641	-32.275168	90.823321
0.492246	-47.471668	86.613299
0.492852	-62.221659	82.336309
0.493457	-76.237188	77.706315
0.494063	-89.272827	72.638455
0.494668	-101.733167	67.369420
0.495273	-113.733633	60.976032
0.495879	-125.204971	53.293989
0.496484	-136.424806	45.618453
0.497090	-147.051725	37.614585
0.497695	-156.513467	28.831505
0.498301	-164.363524	19.530035
0.498906	-171.221541	10.881161
0.499512	-176.746106	2.551402
0.500117	-180.669312	-5.510758
0.500723	-183.265747	-14.038439
0.501328	-184.750466	-22.355184
0.501934	-185.322727	-30.460182
0.502539	-184.584013	-38.806480
0.503145	-182.351467	-47.805104
0.503750	-179.060056	-55.898986
0.504355	-174.752913	-63.119846
0.504961	-168.959228	-69.456027
0.505566	-161.371002	-75.862971
0.506172	-152.344226	-81.565263
0.506777	-142.770704	-86.306147
0.507383	-132.381923	-90.437000
0.507988	-121.018720	-94.643769
0.508594	-109.048628	-97.893468
0.509199	-96.527538	-100.195858
0.509805	-83.007725	-101.817996
0.510410	-68.342176	-103.042394
0.511016	-53.219183	-103.342800
0.511621	-37.991093	-102.484420
0.512227	-22.498742	-100.843845
0.512832	-7.177705	-99.124645
0.513437	8.089872	-97.172005
0.514043	22.868415	-94.086337
0.514648	37.502375	-90.532978
0.515254	52.522094	-86.762720
0.515859	67.086799	-82.028343
0.516465	81.177050	-76.308700
0.517070	95.013367	-69.997191
0.517676	108.357614	-63.744517
0.518281	120.704960	-57.082715
0.518887	131.576700	-49.668543
0.519492	141.376818	-41.944205
0.520098	150.543925	-34.514850
0.520703	158.952878	-26.644917
0.521309	166.307826	-17.696993
0.521914	172.837188	-8.726838
0.522520	178.421894	0.122397
0.523125	182.753944	9.098789
0.523730	185.242246	18.102564
0.524336	186.315083	26.543485
0.524941	185.857032	34.488790
0.525547	183.965290	42.280367
0.526152	180.777154	50.126983
0.526758	176.666232	57.700305
0.527363	171.858512	64.678238
0.527969	165.659021	71.505425
0.528574	158.025840	78.237719
0.529180	149.183135	83.815836
0.529785	139.279136	88.706109
0.530391	127.839387	92.970627
0.530996	115.410029	96.570890
0.531602	102.373176	99.365642
0.532207	89.140101	101.255109
0.532813	75.520659	102.803773
0.533418	61.347789	103.835131
0.534023	46.745419	104.110864
0.534629	32.010008	103.294508
0.535234	16.668924	101.512135
0.535840	0.892873	98.929403
0.536445	-14.926311	95.485308
0.537051	-30.550488	91.472393
0.537656	-45.731801	87.160428
0.538262	-60.511559	82.769566
0.538867	-74.629755	78.248564
0.539473	-87.817267	73.241707
0.540078	-100.339572	67.776649
0.540684	-112.339431	61.682312
0.541289	-123.668615	54.291727
0.541895	-134.752978	46.450534
0.542500	-145.260828	38.450462
0.543105	-154.785143	29.978362
0.543711	-162.793756	20.670385
0.544316	-169.617146	11.904114
0.544922	-175.395643	3.356099
0.545527	-179.622597	-4.763539
0.546133	-182.393384	-13.108753
0.546738	-183.894505	-21.588715
0.547344	-184.536021	-29.850152
0.547949	-183.920628	-37.952980
0.548555	-181.743971	-46.771849
0.549160	-178.445270	-55.277297
0.549766	-174.207382	-62.516865
0.550371	-168.667630	-68.812648
0.550977	-161.375254	-75.309877
0.551582	-152.514325	-81.204938
0.552187	-142.948093	-86.181429
0.552793	-132.639501	-90.174823
0.553398	-121.337655	-94.193973
0.554004	-109.323216	-97.832736
0.554609	-96.833716	-100.134041
0.555215	-83.559331	-101.641494
0.555820	-69.070563	-102.995219
0.556426	-54.012572	-103.564851
0.557031	-38.830652	-102.717587
0.557637	-23.410593	-101.222877
0.558242	-8.119323	-99.636257
0.558848	7.147039	-97.695818
0.559453	22.033716	-94.650276
0.560059	36.586271	-90.915806
0.560664	51.517904	-87.103253
0.561270	66.177378	-82.656268
0.561875	80.321088	-76.843629
0.562480	93.873098	-70.346129
0.563086	107.271412	-64.287308
0.563691	119.647311	-57.741548
0.564297	130.596202	-50.309211
0.564902	140.328888	-42.630421
0.565508	149.505715	-35.028088
0.566113	157.937753	-27.224310
0.566719	165.298776	-18.596585
0.567324	171.837250	-9.590098
0.567930	177.479061	-0.671998
0.568535	181.984855	8.064991
0.569141	184.519934	17.143596
0.569746	185.577584	25.695136
0.570352	185.217339	33.403478
0.570957	183.425834	41.405177
0.571562	180.259568	49.238237
0.572168	176.188740	56.876900
0.572773	171.447845	64.048416
0.573379	165.476772	70.794808
0.573984	158.058644	77.410518
0.574590	149.355056	83.445751
0.575195	139.376335	88.248180
0.575801	128.184445	92.328604
0.576406	115.713777	95.891723
0.577012	102.644726	98.803059
0.577617	89.293190	100.718554
0.578223	75.822584	102.393832
0.578828	61.779110	103.429799
0.579434	47.321932	103.882306
0.580039	32.650915	103.415430
0.580645	17.479930	101.599438
0.581250	1.643737	98.934825
0.581855	-14.324890	95.774055
0.582461	-30.046874	91.676008
0.583066	-45.228794	87.296262
0.583672	-59.924718	83.060754
0.584277	-74.019222	78.652540
0.584883	-87.224959	73.713464
0.585488	-99.643990	68.301546
0.586094	-111.668756	62.136174
0.586699	-123.168646	54.858106
0.587305	-134.313151	47.154644
0.587910	-144.943715	38.672513
0.588516	-154.565837	30.412974
0.589121	-162.654640	21.301020
0.589727	-169.365035	12.539630
0.590332	-174.991051	4.084882
0.590938	-179.182770	-3.869912
0.591543	-181.976642	-12.258506
0.592148	-183.612627	-20.645473
0.592754	-184.433354	-29.055214
0.593359	-184.018434	-37.318278
0.593965	-182.051971	-46.028696
0.594570	-178.754486	-54.703055
0.595176	-174.402388	-62.204529
0.595781	-168.778194	-68.180386
0.596387	-161.510726	-74.500028
0.596992	-152.586009	-80.570236
0.597598	-143.079919	-85.487893
0.598203	-132.907407	-89.648028
0.598809	-121.719162	-93.780780
0.599414	-109.942254	-97.483528
0.600020	-97.548130	-99.912804
0.600625	-84.273746	-101.532773
0.601230	-69.784370	-102.714334
0.601836	-54.515578	-103.310265
0.602441	-39.272908	-102.490114
0.603047	-23.847382	-100.905662
0.603652	-8.562795	-99.496085
0.604258	6.622770	-97.647558
0.604863	21.390986	-94.772282
0.605469	35.755825	-91.322764
0.606074	50.762787	-87.576365
0.606680	65.456888	-83.082205
0.607285	79.814437	-77.442000
0.607891	93.568136	-71.059457
0.608496	107.081266	-64.595577
0.609102	119.574411	-57.998032
0.609707	130.558537	-50.730267
0.610313	140.243838	-43.160469
0.610918	149.429778	-35.673907
0.611523	157.757934	-27.806415
0.612129	165.260504	-19.300424
0.612734	171.898607	-10.550421
0.613340	177.688647	-1.388309
0.613945	182.292248	7.512168
0.614551	185.075185	16.491271
0.615156	186.128582	25.078328
0.615762	185.862499	33.124491
0.616367	184.025433	40.816295
0.616973	181.008610	48.597298
0.617578	176.915913	56.291813
0.618184	172.077211	63.528127
0.618789	166.232496	70.424994
0.619395	158.797966	76.860135
0.620000	150.216485	82.920582
0.620605	140.320990	88.069780
0.621211	129.059238	91.998375
0.621816	116.787222	95.504558
0.622422	103.680506	98.473100
0.623027	90.449254	100.541781
0.623633	76.951311	102.047878
0.624238	62.889612	103.168706
0.624844	48.396592	103.684656
0.625449	33.701883	103.156777
0.626055	18.414866	101.470653
0.626660	2.675872	98.922083
0.627266	-13.238688	95.836956
0.627871	-29.016562	91.806690
0.628477	-44.189370	87.355096
0.629082	-58.989175	83.284974
0.629687	-73.169943	78.995512
0.630293	-86.381755	73.955036
0.630898	-98.820834	68.543390
0.631504	-110.903312	62.437665
0.632109	-122.496149	55.259642
0.632715	-133.715983	47.448815
0.633320	-144.322855	39.399398
0.633926	-154.045821	30.854365
0.634531	-162.338134	21.761661
0.635137	-169.369288	12.924356
0.635742	-175.144140	4.362785
0.636348	-179.445816	-3.566524
0.636953	-182.358149	-12.137584
0.637559	-184.140541	-20.594230
0.638164	-184.827618	-28.624126
0.638770	-184.375034	-36.811004
0.639375	-182.507593	-45.620383
0.639980	-179.415441	-53.979424
0.640586	-175.218254	-61.288399
0.641191	-169.788459	-67.718661
0.641797	-162.663752	-74.261981
0.642402	-153.951051	-80.142130
0.643008	-144.469869	-85.096931
0.643613	-134.259692	-89.285534
0.644219	-123.159534	-93.622985
0.644824	-111.272669	-97.095819
0.645430	-98.857283	-99.331241
0.646035	-85.538552	-101.265173
0.646641	-71.064364	-102.667429
0.647246	-56.042214	-103.130510
0.647852	-40.882771	-102.467610
0.648457	-25.501593	-101.312077
0.649062	-10.242520	-99.741453
0.649668	4.940008	-97.761701
0.650273	19.830938	-94.906489
0.650879	34.507422	-91.380243
0.651484	49.558731	-87.575823
0.652090	64.228532	-82.882386
0.652695	78.544772	-77.237573
0.653301	92.327022	-71.288558
0.653906	105.772113	-64.830642
0.654512	118.122497	-58.092925
0.655117	129.204430	-51.114722
0.655723	139.287033	-43.656627
0.656328	148.512460	-36.099302
0.656934	156.996135	-28.240214
0.657539	164.650578	-19.822610
0.658145	171.485510	-10.947077
0.658750	177.317467	-1.956315
0.659355	181.854851	7.026584
0.659961	184.776904	16.025479
0.660566	186.047178	24.503815
0.661172	185.874041	32.706417
0.661777	184.256888	40.536765
0.662383	181.306283	48.304213
0.662988	177.520978	56.200715
0.663594	172.893685	63.415069
0.664199	167.157712	70.220295
0.664805	159.876271	76.827871
0.665410	151.309369	82.798305
0.666016	141.460652	87.595041
0.666621	130.321614	91.751109
0.667227	117.928706	95.364657
0.667832	105.120270	98.427009
0.668438	91.978320	100.495418
0.669043	78.601876	102.197267
0.669648	64.612469	103.544214
0.670254	50.192348	104.246969
0.670859	35.401655	103.421123
0.671465	20.089731	101.789496
0.672070	4.234098	99.541331
0.672676	-11.780699	96.271569
0.673281	-27.308284	92.257299
0.673887	-42.574646	88.023418
0.674492	-57.297300	83.884701
0.675098	-71.398486	79.408706
0.675703	-84.691095	74.483729
0.676309	-97.351909	69.106244
0.676914	-109.641544	63.163465
0.677520	-121.331580	55.794571
0.678125	-132.662586	47.799921
0.678730	-143.366657	39.963337
0.679336	-153.178317	31.733622
0.679941	-161.341234	22.432152
0.680547	-168.266683	13.668864
0.681152	-174.109575	5.247735
0.681758	-178.609294	-2.779992
0.682363	-181.788926	-11.353221
0.682969	-183.701322	-19.761878
0.683574	-184.626537	-28.095705
0.684180	-184.480131	-36.190942
0.684785	-182.566520	-44.945554
0.685391	-179.454321	-53.525832
0.685996	-175.225544	-60.723918
0.686602	-169.956128	-67.254495
0.687207	-162.909180	-73.730034
0.687813	-154.462563	-79.682574
0.688418	-145.222556	-84.875422
0.689023	-135.330706	-89.325119
0.689629	-124.400040	-93.579605
0.690234	-112.590934	-97.266357
0.690840	-100.149426	-99.756094
0.691445	-86.834340	-101.442488
0.692051	-72.347394	-102.630827
0.692656	-57.160614	-103.243027
0.693262	-42.128137	-102.638961
0.693867	-26.853878	-101.452791
0.694473	-11.613638	-99.891656
0.695078	3.443746	-97.976161
0.695684	18.269067	-95.469886
0.696289	32.821622	-91.893753
0.696895	47.965270	-87.985763
0.697500	62.812460	-83.497839
0.698105	77.279358	-77.934634
0.698711	91.068292	-71.677350
0.699316	104.488475	-65.402172
0.699922	117.024145	-59.015562
0.700527	128.149818	-51.913997
0.701133	138.081154	-44.426079
0.701738	147.302329	-36.787416
0.702344	155.927550	-29.063348
0.702949	163.752700	-20.630290
0.703555	170.644736	-11.423985
0.704160	176.527115	-2.450033
0.704766	181.302030	6.231375
0.705371	184.276936	15.277988
0.705977	185.519264	23.912221
0.706582	185.420850	31.901990
0.707187	183.925196	39.674860
0.707793	181.164736	47.553198
0.708398	177.420741	55.371345
0.709004	173.004249	62.631790
0.709609	167.355148	69.527029
0.710215	160.115624	76.134335
0.710820	151.500730	82.356101
0.711426	141.772297	87.140365
0.712031	130.726814	91.249529
0.712637	118.444469	95.231806
0.713242	105.614164	98.349739
0.713848	92.614368	100.376395
0.714453	79.364890	102.159039
0.715059	65.478758	103.562650
0.715664	51.031300	104.209011
0.716270	36.284954	103.629347
0.716875	21.027704	101.978741
0.717480	5.200623	99.637851
0.718086	-10.893755	96.420416
0.718691	-26.558635	92.311524
0.719297	-41.789762	88.046463
0.719902	-56.567091	84.051714
0.720508	-70.682249	79.497635
0.721113	-83.985793	74.783321
0.721719	-96.622307	69.569596
0.722324	-108.984233	63.777562
0.722930	-120.731374	56.594117
0.723535	-131.898357	48.686498
0.724141	-142.699627	40.567673
0.724746	-152.568392	32.415500
0.725352	-160.949400	23.446158
0.725957	-167.886998	14.394936
0.726562	-173.869007	5.925818
0.727168	-178.570415	-2.110043
0.727773	-181.774346	-10.604104
0.728379	-183.725621	-19.017641
0.728984	-184.625930	-27.439312
0.729590	-184.570648	-35.720541
0.730195	-183.001487	-44.101001
0.730801	-179.725264	-52.887876
0.731406	-175.621024	-60.448998
0.732012	-170.465817	-66.772436
0.732617	-163.592613	-72.980375
0.733223	-155.092535	-79.237116
0.733828	-145.738927	-84.530823
0.734434	-135.852545	-88.808897
0.735039	-124.976553	-92.857329
0.735645	-113.135250	-96.688590
0.736250	-100.752062	-99.503134
0.736855	-87.700021	-101.244567
0.737461	-73.535048	-102.313883
0.738066	-58.355557	-103.366659
0.738672	-43.118962	-103.005521
0.739277	-27.825870	-101.704395
0.739883	-12.586845	-100.054873
0.740488	2.690452	-98.413756
0.741094	17.755733	-95.820721
0.741699	32.277913	-92.213137
0.742305	47.240528	-88.339039
0.742910	62.166085	-83.960919
0.743516	76.575879	-78.637389
0.744121	90.327147	-72.226649
0.744727	103.712703	-65.804250
0.745332	116.601935	-59.633997
0.745938	127.966354	-52.420458
0.746543	137.961478	-44.778270
0.747148	147.226999	-37.244803
0.747754	155.950635	-29.697509
0.748359	163.780037	-21.408689
0.748965	170.568192	-12.453716
0.749570	176.483376	-3.374839
0.750176	181.362780	5.441861
0.750781	184.578253	14.426115
0.751387	185.934183	23.273723
0.751992	185.887406	31.326664
0.752598	184.563066	39.110108
0.753203	181.784382	47.017727
0.753809	177.903093	54.741252
0.754414	173.349914	61.946929
0.755020	167.727543	68.998065
0.755625	160.719475	75.569311
0.756230	152.306877	81.758814
0.756836	142.628866	86.855413
0.757441	131.731004	91.099326
0.758047	119.677685	94.656209
0.758652	106.705226	97.853310
0.759258	93.401074	99.973775
0.759863	80.017341	101.655831
0.760469	66.080786	102.923339
0.761074	51.691647	103.500563
0.761680	36.979929	103.430613
0.762285	21.805906	102.009378
0.762891	6.220001	99.492257
0.763496	-9.653857	96.631080
0.764102	-25.532575	92.822865
0.764707	-40.845714	88.583290
0.765312	-55.774916	84.274578
0.765918	-70.148868	79.881818
0.766523	-83.559939	75.130089
0.767129	-96.308232	69.782971
0.767734	-108.427160	63.820129
0.768340	-120.165188	56.811288
0.768945	-131.433015	49.261553
0.769551	-142.319942	41.073592
0.770156	-152.249456	32.613963
0.770762	-160.875893	23.724060
0.771367	-168.144577	14.800538
0.771973	-174.225607	6.167119
0.772578	-178.754486	-1.842172
0.773184	-181.966314	-10.126111
0.773789	-183.983200	-18.474579
0.774395	-184.822151	-26.703480
0.775000	-184.678174	-34.870836
0.775605	-183.082891	-43.551160
0.776211	-180.260467	-52.204100
0.776816	-176.418665	-59.791250
0.777422	-171.273786	-66.342975
0.778027	-164.567643	-72.890361
0.778633	-156.147755	-79.149272
0.779238	-146.819054	-84.060151
0.779844	-136.797201	-88.330091
0.780449	-125.673958	-92.612233
0.781055	-113.906162	-96.326368
0.781660	-101.630500	-98.829390
0.782266	-88.553552	-100.800465
0.782871	-74.332689	-102.237154
0.783477	-59.410170	-103.078725
0.784082	-44.406853	-102.654686
0.784687	-29.013524	-101.599469
0.785293	-13.558231	-100.231375
0.785898	1.637662	-98.373087
0.786504	16.666494	-95.518959
0.787109	31.254891	-92.280647
0.787715	46.309237	-88.707768
0.788320	61.162502	-84.038732
0.788926	75.497574	-78.588044
0.789531	89.425016	-72.517836
0.790137	103.054786	-66.270042
0.790742	115.734432	-59.767933
0.791348	127.051466	-52.630850
0.791953	137.262250	-45.270090
0.792559	146.630439	-37.700292
0.793164	155.416646	-30.021502
0.793770	163.237544	-21.621250
0.794375	170.248042	-12.964514
0.794980	176.288370	-3.973482
0.795586	181.142866	5.056593
0.796191	184.468904	13.801715
0.796797	186.092132	22.553887
0.797402	186.267091	30.726937
0.798008	184.803634	38.692576
0.798613	182.199909	46.536209
0.799219	178.423109	54.324804
0.799824	174.016336	61.686107
0.800430	168.489950	68.672716
0.801035	161.642868	75.430224
0.801641	153.321394	81.515886
0.802246	143.838389	86.693552
0.802852	132.966650	91.012024
0.803457	120.899359	94.521731
0.804063	108.064194	97.936274
0.804668	94.867569	100.059992
0.805273	81.490517	101.718190
0.805879	67.607422	103.174671
0.806484	53.180619	103.897489
0.807090	38.559417	103.564548
0.807695	23.361702	102.147380
0.808301	7.646400	99.980553
0.808906	-8.394519	96.977848
0.809512	-24.103745	93.114595
0.810117	-39.472774	88.839774
0.810723	-54.433566	84.724645
0.811328	-68.736441	80.482630
0.811934	-82.180924	75.463844
0.812539	-94.963845	70.164714
0.813145	-107.281424	64.706435
0.813750	-119.117866	57.541155
0.814355	-130.388730	49.648719
0.814961	-141.392297	41.586288
0.815566	-151.509527	33.537143
0.816172	-160.182740	24.375302
0.816777	-167.320205	15.357428
0.817383	-173.441330	6.972359
0.817988	-178.243582	-1.028527
0.818594	-181.577517	-9.399498
0.819199	-183.678844	-18.097987
0.819805	-184.816076	-26.235790
0.820410	-184.995287	-34.330756
0.821016	-183.516643	-43.243434
0.821621	-180.657769	-51.991538
0.822227	-176.809285	-59.466985
0.822832	-171.880674	-65.998646
0.823438	-165.183643	-72.446531
0.824043	-156.787448	-78.746110
0.824648	-147.580246	-83.914828
0.825254	-137.936255	-88.326838
0.825859	-127.112507	-92.623620
0.826465	-115.357469	-96.582852
0.827070	-103.322983	-99.210591
0.827676	-90.359029	-101.029837
0.828281	-76.163073	-102.516955
0.828887	-61.026108	-103.219710
0.829492	-45.943817	-102.720027
0.830098	-30.593620	-101.603536
0.830703	-15.135897	-100.042672
0.831309	0.032659	-98.422161
0.831914	15.036583	-95.856238
0.832520	29.386842	-92.514357
0.833125	44.387121	-88.929819
0.833730	59.400765	-84.737962
0.834336	73.774109	-79.449407
0.834941	87.739824	-73.291626
0.835547	101.398753	-66.956258
0.836152	114.380932	-60.502138
0.836758	125.908767	-53.676849
0.837363	136.016885	-46.086717
0.837969	145.480450	-38.314931
0.838574	154.267265	-30.716937
0.839180	162.168959	-22.417814
0.839785	169.230487	-13.409972
0.840391	175.343107	-4.411890
0.840996	180.508641	4.500245
0.841602	183.975010	13.429190
0.842207	185.633473	22.228809
0.842812	185.979746	30.315098
0.843418	184.713117	38.105591
0.844023	182.160421	45.669695
0.844629	178.458951	53.582737
0.845234	174.101993	61.049778
0.845840	168.796735	67.866120
0.846445	162.007973	74.715269
0.847051	153.897908	81.222800
0.847656	144.481120	86.474754
0.848262	133.778264	90.840944
0.848867	121.747422	94.625029
0.849473	108.911042	97.891267
0.850078	95.789747	100.180643
0.850684	82.443678	101.852668
0.851289	68.668717	103.243808
0.851895	54.487949	104.148822
0.852500	39.884365	103.819677
0.853105	24.944835	102.429350
0.853711	9.265376	100.383986
0.854316	-6.787086	97.299673
0.854922	-22.532762	93.343153
0.855527	-38.085862	89.060198
0.856133	-53.017494	84.963506
0.856738	-67.466168	80.588911
0.857344	-80.940418	75.925298
0.857949	-93.602447	70.696932
0.858555	-105.892689	65.133998
0.859160	-117.613707	58.348022
0.859766	-128.921021	50.592233
0.860371	-139.906970	42.530886
0.860977	-150.124437	34.415315
0.861582	-159.050976	25.239104
0.862187	-166.415037	16.206590
0.862793	-172.660698	7.841313
0.863398	-177.662209	-0.472179
0.864004	-181.045351	-8.687796
0.864609	-183.265140	-17.287053
0.865215	-184.396904	-25.586718
0.865820	-184.593733	-33.782542
0.866426	-183.358694	-42.258167
0.867031	-180.586085	-51.185756
0.867637	-176.866997	-58.998481
0.868242	-172.003996	-65.607143
0.868848	-165.553001	-71.965284
0.869453	-157.291062	-78.177290
0.870059	-147.952033	-83.619573
0.870664	-138.257012	-88.159283
0.871270	-127.562661	-91.980512
0.871875	-115.968002	-96.123567
0.872480	-103.869729	-99.094550
0.873086	-91.089238	-101.015196
0.873691	-77.104084	-102.462730
0.874297	-62.103805	-103.548584
0.874902	-46.840480	-103.245196
0.875508	-31.617250	-102.042487
0.876113	-16.150414	-100.440683
0.876719	-0.932044	-98.838879
0.877324	14.112582	-96.477655
0.877930	28.549106	-93.109204
0.878535	43.314284	-89.264387
0.879141	58.205214	-85.380527
0.879746	72.702487	-80.111493
0.880352	86.660912	-73.800798
0.880957	100.341711	-67.410934
0.881563	113.430201	-61.134943
0.882168	125.065563	-54.157824
0.882773	135.272703	-46.636015
0.883379	144.722903	-39.056457
0.883984	153.571682	-31.572335
0.884590	161.389542	-23.453510
0.885195	168.459575	-14.506671
0.885801	174.632337	-5.444875
0.886406	179.944885	3.293470
0.887012	183.571026	12.466427
0.887617	185.296313	21.496772
0.888223	185.719738	29.540496
0.888828	184.673630	37.405548
0.889434	182.150701	45.210410
0.890039	178.533066	53.075191
0.890645	174.130546	60.460082
0.891250	168.876924	67.361829
0.891855	162.311720	74.111746
0.892461	154.186468	80.520317
0.893066	144.896039	85.876925
0.893672	134.382722	90.279716
0.894277	122.508614	94.161678
0.894883	109.727516	97.348205
0.895488	96.577668	99.705633
0.896094	83.201225	101.685926
0.896699	69.391637	103.076253
0.897305	55.076005	103.886102
0.897910	40.495505	103.819948
0.898516	25.629482	102.664957
0.899121	10.144422	100.467493
0.899727	-5.819345	97.638579
0.900332	-21.673156	93.912785
0.900937	-37.076205	89.546053
0.901543	-52.045501	85.265539
0.902148	-66.608991	80.860036
0.902754	-80.292220	76.228686
0.903359	-93.061169	71.017943
0.903965	-105.376318	65.225638
0.904570	-117.172058	58.694519
0.905176	-128.426520	51.157256
0.905781	-139.295222	43.039245
0.906387	-149.496287	34.967325
0.906992	-158.495118	26.131104
0.907598	-165.891983	16.935373
0.908203	-172.269471	8.240679
0.908809	-177.337806	0.038619
0.909414	-180.900767	-8.060685
0.910020	-183.136958	-16.534411
0.910625	-184.247460	-24.950660
0.911230	-184.411484	-33.150009
0.911836	-183.273645	-41.192919
0.912441	-180.557532	-50.242785
0.913047	-176.854847	-58.360797
0.913652	-172.095727	-64.914962
0.914258	-165.911423	-71.222945
0.914863	-157.821405	-77.618503
0.915469	-148.546771	-83.086814
0.916074	-138.763056	-87.579619
0.916680	-128.089360	-91.635913
0.917285	-116.440026	-95.675940
0.917891	-104.259133	-98.618726
0.918496	-91.475605	-100.675748
0.919102	-77.686672	-102.038962
0.919707	-62.834014	-103.430374
0.920312	-47.647841	-103.296167
0.920918	-32.463491	-102.003716
0.921523	-17.009413	-100.568654
0.922129	-1.756415	-98.868974
0.922734	13.448590	-96.391980
0.923340	28.036380	-93.014310
0.923945	42.783941	-89.239985
0.924551	57.693096	-85.167695
0.925156	72.203126	-80.085465
0.925762	86.112343	-74.120182
0.926367	99.570191	-67.769090
0.926973	112.740087	-61.464630
0.927578	124.535827	-54.536585
0.928184	134.916103	-47.164708
0.928789	144.407613	-39.648322
0.929395	153.306207	-31.781101
0.930000	161.300240	-23.842574
0.930605	168.440743	-15.112363
0.931211	174.507800	-6.072528
0.931816	179.761422	2.803276
0.932422	183.509061	11.668507
0.933027	185.409915	20.578744
0.933633	185.953016	28.958662
0.934238	184.980415	36.877668
0.934844	182.634875	44.674126
0.935449	179.064017	52.487122
0.936055	174.747154	59.983174
0.936660	169.480775	67.064134
0.937266	162.907674	73.459420
0.937871	154.906958	79.837896
0.938477	145.601341	85.480812
0.939082	135.074659	89.886043
0.939688	123.362146	93.652235
0.940293	110.600487	97.058101
0.940898	97.496202	99.588236
0.941504	84.185367	101.400974
0.942109	70.504568	102.848508
0.942715	56.099635	103.693875
0.943320	41.448058	103.806120
0.943926	26.450209	102.606936
0.944531	10.946316	100.265505
0.945137	-5.015021	97.723983
0.945742	-20.893739	94.175505
0.946348	-36.302255	89.780305
0.946953	-51.240570	85.641588
0.947559	-65.674663	81.399845
0.948164	-79.492756	76.734605
0.948770	-92.341286	71.428426
0.949375	-104.691063	65.732641
0.949980	-116.645359	59.062977
0.950586	-128.083892	51.421332
0.951191	-139.057084	43.447287
0.951797	-149.298243	35.312466
0.952402	-158.238755	26.568970
0.953008	-165.703052	17.446442
0.953613	-172.010071	8.761781
0.954219	-177.119715	0.793430
0.954824	-180.897122	-7.437369
0.955430	-183.296730	-16.034187
0.956035	-184.560928	-24.386721
0.956641	-184.840376	-32.629992
0.957246	-183.729874	-40.983882
0.957852	-181.079979	-49.818204
0.958457	-177.416781	-57.761069
0.959063	-172.615136	-64.547317
0.959668	-166.460599	-70.867230
0.960273	-158.504838	-77.311590
0.960879	-149.438575	-82.797253
0.961484	-139.820706	-87.351061
0.962090	-129.266686	-91.704508
0.962695	-117.707869	-95.679465
0.963301	-105.577399	-98.348686
0.963906	-92.776861	-100.556724
0.964512	-78.827549	-101.865714
0.965117	-63.919609	-102.932589
0.965723	-48.803298	-102.791333
0.966328	-33.645677	-101.837788
0.966934	-18.276041	-100.431194
0.967539	-3.140290	-98.758084
0.968145	11.934103	-96.518595
0.968750	26.602083	-93.384395
0.969355	41.434693	-89.837544
0.969961	56.496937	-85.583871
0.970566	70.983275	-80.577827
0.971172	85.133060	-74.821311
0.971777	98.629788	-68.353905
0.972383	111.813048	-61.870233
0.972988	123.613649	-55.033827
0.973594	134.112994	-47.645683
0.974199	143.639131	-39.982890
0.974805	152.611840	-32.256382
0.975410	160.819711	-24.125357
0.976016	168.079890	-15.324925
0.976621	174.407564	-6.343110
0.977227	179.689737	2.622436
0.977832	183.502986	11.374879
0.978437	185.527769	20.124069
0.979043	186.117647	28.573394
0.979648	185.236779	36.365243
0.980254	183.051617	44.018818
0.980859	179.669082	51.948127
0.981465	175.454886	59.434418
0.982070	170.371971	66.546286
0.982676	163.853544	73.294034
0.983281	155.835818	79.749781
0.983887	146.706983	85.231106
0.984492	136.180908	89.767020
0.985098	124.569239	93.619428
0.985703	111.878050	97.012010
0.986309	98.856992	99.617517
0.986914	85.647002	101.279239
0.987520	72.053682	102.709693
0.988125	57.764780	103.818592
0.988730	43.246245	103.864412
0.989336	28.293350	102.643267
0.989941	12.667351	100.547745
0.990547	-3.344409	97.805863
0.991152	-19.174527	94.196382
0.991758	-34.657157	90.005067
0.992363	-49.658652	85.970734
0.992969	-64.265274	81.709740
0.993574	-77.948503	77.182502
0.994180	-90.781845	71.840806
0.994785	-103.231858	66.420484
0.995391	-115.198913	59.789591
0.995996	-126.704270	52.034344
0.996602	-137.874290	44.163327
0.997207	-148.231481	36.083544
0.997812	-157.432001	27.183339
0.998418	-165.079154	18.097413
0.999023	-171.635246	9.526894
0.999629	-176.841482	1.329986
1.000234	-180.669919	-6.946905
1.000840	-183.176446	-15.505223
1.001445	-184.605882	-23.851521
1.002051	-185.014119	-32.047616
1.002656	-184.093764	-40.514565
1.003262	-181.678362	-49.512376
1.003867	-178.123905	-57.184658
1.004473	-173.554932	-64.072306
1.005078	-167.371842	-70.563570
1.005684	-159.476831	-76.866945
1.006289	-150.491364	-82.382432
1.006895	-140.940320	-87.024356
1.007500	-130.442798	-91.312190
1.008105	-118.973282	-95.447653
1.008711	-106.970993	-98.456051
1.009316	-94.231205	-100.602273
1.009922	-80.482974	-102.120029
1.010527	-65.632139	-103.159249
1.011133	-50.543165	-102.976511
1.011738	-35.268905	-102.162866
1.012344	-19.890764	-100.631555
1.012949	-4.751976	-98.844573
1.013555	10.343680	-96.731970
1.014160	25.035959	-93.597228
1.014766	39.834550	-89.970395
1.015371	54.863381	-86.069726
1.015977	69.368552	-81.079679
1.016582	83.419316	-75.200072
1.017187	97.049085	-68.866873
1.017793	110.251177	-62.595491
1.018398	122.237064	-55.801923
1.019004	132.842721	-48.432215
1.019609	142.564471	-40.657990
1.020215	151.627089	-33.060266
1.020820	159.877486	-25.135296
1.021426	167.186872	-16.142365
1.022031	173.498143	-7.058337
1.022637	178.863543	1.820721
1.023242	182.832919	10.778947
1.023848	185.027800	19.662072
1.024453	185.846097	28.002406
1.025059	185.145654	35.944729
1.025664	183.163396	43.759352
1.026270	179.836751	51.569094
1.026875	175.626807	59.032882
1.027480	170.604034	65.974213
1.028086	164.143319	72.833393
1.028691	156.353404	79.428227
1.029297	147.179615	84.776972
1.029902	136.893501	89.526261
1.030508	125.397863	93.664435
1.031113	112.925373	97.007943
1.031719	99.917679	99.589591
1.032324	86.699791	101.515660
1.032930	72.971000	103.009014
1.033535	58.822430	103.892609
1.034141	44.241930	103.959577
1.034746	29.398992	102.943944
1.035352	13.947951	101.053664
1.035957	-1.864550	98.315848
1.036563	-17.661255	94.638315
1.037168	-33.221646	90.669051
1.037773	-48.337349	86.455504
1.038379	-62.965841	81.924471
1.038984	-76.850758	77.305864
1.039590	-89.968409	72.235021
1.040195	-102.388047	66.784062
1.040801	-114.265192	60.336991
1.041406	-125.588301	52.798915
1.042012	-136.608269	44.971821
1.042617	-147.041397	36.998319
1.043223	-156.296592	28.215510
1.043828	-164.053702	18.918378
1.044434	-170.744657	10.297972
1.045039	-176.286231	1.725556
1.045645	-180.192428	-6.451831
1.046250	-182.758489	-14.800299
1.046855	-184.223160	-23.142801
1.047461	-184.683034	-31.295517
1.048066	-183.786979	-39.408648
1.048672	-181.282882	-48.302889
1.049277	-177.806185	-56.482446
1.049883	-173.395768	-63.413203
1.050488	-167.518856	-69.775683
1.051094	-159.900862	-76.349369
1.051699	-150.917219	-82.107512
1.052305	-141.355847	-86.984500
1.052910	-131.002908	-91.005820
1.053516	-119.551618	-95.178155
1.054121	-107.512879	-98.539829
1.054727	-94.850243	-100.507380
1.055332	-81.281831	-101.983653
1.055937	-66.569504	-103.251974
1.056543	-51.407631	-103.343614
1.057148	-36.327770	-102.337470
1.057754	-20.874907	-100.845472
1.058359	-5.634059	-99.238788
1.058965	9.550291	-97.056778
1.059570	24.187895	-93.869166
1.060176	38.870455	-90.207087
1.060781	53.992233	-86.443878
1.061387	68.553293	-81.594002
1.061992	82.591299	-75.558498
1.062598	96.252051	-69.382552
1.063203	109.527650	-63.279809
1.063809	121.714010	-56.397041
1.064414	132.289900	-49.006999
1.065020	141.932676	-41.465670
1.065625	151.036604	-33.865235
1.066230	159.243261	-25.791146
1.066836	166.573909	-17.021893
1.067441	173.015184	-8.048484
1.068047	178.477784	0.785296
1.068652	182.616650	9.773346
1.069258	184.910554	18.830533
1.069863	185.785347	26.975657
1.070469	185.266546	35.027514
1.071074	183.187089	43.008608
1.071680	179.988625	50.773344
1.072285	175.845505	58.316029
1.072891	170.864650	65.315109
1.073496	164.460432	72.126572
1.074102	156.642572	78.597230
1.074707	147.640704	84.188090
1.075312	137.521043	88.798834
1.075918	126.011433	92.885223
1.076523	113.559598	96.499314
1.077129	100.559801	99.144676
1.077734	87.407524	101.218236
1.078340	73.779577	102.723520
1.078945	59.599416	103.705262
1.079551	44.978214	104.118998
1.080156	30.011347	103.087911
1.080762	14.616196	101.100297
1.081367	-1.340281	98.374953
1.081973	-17.096285	94.940347
1.082578	-32.602608	90.737646
1.083184	-47.639337	86.561243
1.083789	-62.271473	82.335496
1.084395	-76.183728	77.697639
1.085000	-89.240629	72.648215
1.085605	-101.788449	67.031870
1.086211	-113.821720	60.741780
1.086816	-125.279693	53.366921
1.087422	-136.322747	45.198752
1.088027	-146.744332	37.208982
1.088633	-156.036583	28.844248
1.089238	-163.805844	19.543591
1.089844	-170.427545	10.785726
1.090449	-175.947856	2.478469
1.091055	-180.036301	-5.623817
1.091660	-182.729936	-14.219821
1.092266	-184.237740	-22.561781
1.092871	-184.737709	-30.693349
1.093477	-183.980770	-38.795635
1.094082	-181.609715	-47.648123
1.094688	-178.157318	-56.065185
1.095293	-173.703161	-62.786092
1.095898	-168.003030	-68.971527
1.096504	-160.411766	-75.707617
1.097109	-151.530182	-81.514291
1.097715	-142.050214	-86.352780
1.098320	-131.716716	-90.491496
1.098926	-120.360194	-94.772282
1.099531	-108.208462	-98.006256
1.100137	-95.617510	-100.225410
1.100742	-82.038770	-101.703581
1.101348	-67.324014	-103.007148
1.101953	-52.139056	-103.299692
1.102559	-37.053727	-102.241492
1.103164	-21.679231	-100.925725
1.103770	-6.435346	-99.459754
1.104375	8.744752	-97.119678
1.104980	23.506286	-94.038348
1.105586	38.160900	-90.416395
1.106191	53.317913	-86.465026
1.106797	67.937900	-81.678593
1.107402	82.116238	-75.889541
1.108008	95.776989	-69.609754
1.108613	109.079926	-63.397206
1.109219	121.307596	-56.701785
1.109824	132.023817	-49.422633
1.110430	141.720052	-41.885371
1.111035	150.842205	-34.278158
1.111641	159.113864	-26.172076
1.112246	166.543534	-17.695638
1.112852	173.037661	-8.545455
1.113457	178.619330	0.571650
1.114062	182.886986	9.326262
1.114668	185.246499	18.268763
1.115273	186.103675	26.698839
1.115879	185.567864	34.643873
1.116484	183.689488	42.374990
1.117090	180.461256	50.161958
1.117695	176.410476	57.780829
1.118301	171.477613	64.887546
1.118906	165.285411	71.612791
1.119512	157.692932	77.995605
1.120117	148.660081	83.941909
1.120723	138.513691	88.497615
1.121328	127.114645	92.392048
1.121934	114.632435	96.073106
1.122539	101.620489	98.968174
1.123145	88.479146	100.937080
1.123750	74.910126	102.430705
1.124355	60.756695	103.615791
1.124961	46.176803	103.922162
1.125566	31.246993	103.048327
1.126172	15.845767	101.098670
1.126777	0.002892	98.493435
1.127383	-16.067187	95.187071
1.127988	-31.635475	90.877004
1.128594	-46.709868	86.698703
1.129199	-61.432522	82.726457
1.129805	-75.417069	78.173734
1.130410	-88.555982	73.005829
1.131016	-101.023005	67.573577
1.131621	-113.063566	61.222213
1.132227	-124.714722	53.815090
1.132832	-135.904182	45.932686
1.133438	-146.428434	37.801118
1.134043	-155.870130	29.160650
1.134648	-163.825283	20.040562
1.135254	-170.543576	11.325806
1.135859	-176.045056	3.081450
1.136465	-180.131678	-4.968238
1.137070	-182.911578	-13.733966
1.137676	-184.429709	-21.979948
1.138281	-185.031129	-30.199631
1.138887	-184.386577	-38.565993
1.139492	-182.244547	-47.384590
1.140098	-179.027859	-55.620270
1.140703	-174.592534	-62.586815
1.141309	-168.858991	-68.911880
1.141914	-161.369179	-75.363288
1.142520	-152.470585	-81.042263
1.143125	-142.923185	-85.834661
1.143730	-132.609127	-89.995067
1.144336	-121.328542	-94.281547
1.144941	-109.408873	-97.418187
1.145547	-96.941850	-99.894638
1.146152	-83.436617	-101.719035
1.146758	-68.831818	-102.890022
1.147363	-53.682094	-103.157080
1.147969	-38.470407	-102.419079
1.148574	-23.005393	-101.085146
1.149180	-7.692254	-99.497170
1.149785	7.527331	-97.384567
1.150391	22.330174	-94.416567
1.150996	36.986003	-90.849381
1.151602	52.110212	-86.884726
1.152207	66.698002	-82.075519
1.152813	80.915219	-76.404678
1.153418	94.661628	-70.176947
1.154023	108.138308	-63.633627
1.154629	120.498412	-57.100067
1.155234	131.407209	-49.907404
1.155840	141.266253	-42.299649
1.156445	150.391443	-34.777298
1.157051	158.781564	-26.887303
1.157656	166.203944	-18.301601
1.158262	172.835973	-9.253633
1.158867	178.483858	-0.295406
1.159473	182.905818	8.704573
1.160078	185.460337	17.643550
1.160684	186.457845	26.191023
1.161289	186.047785	34.190824
1.161895	184.095902	41.860395
1.162500	180.914448	49.874295
1.163105	176.805348	57.596464
1.163711	171.973937	64.574668
1.164316	165.994358	71.480211
1.164922	158.491789	78.084805
1.165527	149.711048	83.872230
1.166133	139.786394	88.605793
1.166738	128.320524	92.594035
1.167344	115.725319	96.034877
1.167949	102.720056	98.679426
1.168555	89.318704	100.471559
1.169160	75.723562	102.119997
1.169766	61.619339	103.412990
1.170371	47.195573	103.699026
1.170977	32.552501	102.969430
1.171582	17.301934	101.493428
1.172187	1.473638	99.033515
1.172793	-14.532654	95.689464
1.173398	-30.218188	91.497065
1.174004	-45.561094	87.241766
1.174609	-60.416182	82.897266
1.175215	-74.493676	78.277574
1.175820	-87.659926	73.236556
1.176426	-100.111762	67.886184
1.177031	-112.122555	61.777747
1.177637	-123.558051	54.217710
1.178242	-134.737791	46.513706
1.178848	-145.440039	38.610968
1.179453	-155.122910	29.854729
1.180059	-163.300407	20.628360
1.180664	-170.177257	12.037236
1.181270	-175.877387	3.588453
1.181875	-179.987094	-4.401588
1.182480	-182.636990	-12.964243
1.183086	-184.199468	-21.168201
1.183691	-184.890798	-29.443736
1.184297	-184.392044	-37.657454
1.184902	-182.338709	-46.689698
1.185508	-179.238660	-55.135499
1.186113	-175.095540	-62.367204
1.186719	-169.487142	-68.923538
1.187324	-161.999759	-75.210103
1.187930	-153.052566	-80.922426
1.188535	-143.517923	-85.760102
1.189141	-133.163770	-89.855167
1.189746	-121.883793	-94.064918
1.190352	-110.041276	-97.527179
1.190957	-97.750426	-99.958081
1.191563	-84.481509	-101.648814
1.192168	-69.869420	-103.060560
1.192773	-54.742782	-103.518760
1.193379	-39.482494	-102.690475
1.193984	-23.850420	-101.209050
1.194590	-8.427931	-99.512353
1.195195	6.868198	-97.634815
1.195801	21.603610	-94.572463
1.196406	36.060788	-90.897370
1.197012	51.030692	-87.354043
1.197617	65.561377	-82.877777
1.198223	79.695368	-77.202326
1.198828	93.537761	-70.805414
1.199434	107.126828	-64.558162
1.200039	119.625441	-57.833730
1.200645	130.660597	-50.434741
1.201250	140.534221	-42.777370
1.201855	149.793060	-35.364012
1.202461	158.120001	-27.632353
1.203066	165.484062	-18.896991
1.203672	171.967862	-10.093848
1.204277	177.761546	-1.490252
1.204883	182.214488	7.679452
1.205488	184.975556	16.801437
1.206094	186.178397	25.336167
1.206699	185.931753	33.328919
1.207305	184.211326	41.160081
1.207910	180.996460	49.073664
1.208516	176.928670	56.719377
1.209121	172.168335	63.773224
1.209727	166.087913	70.543475
1.210332	158.652775	77.244048
1.210937	149.981384	83.084884
1.211543	140.158182	87.965126
1.212148	128.928019	92.342161
1.212754	116.532681	95.793847
1.213359	103.602746	98.740158
1.213965	90.237238	100.666769
1.214570	76.617796	102.204045
1.215176	62.503853	103.409736
1.215781	47.950690	103.826997
1.216387	33.219531	103.140510
1.216992	18.050368	101.489090
1.217598	2.286467	99.122172
1.218203	-13.608653	95.894164
1.218809	-29.185445	91.834344
1.219414	-44.533819	87.527802
1.220020	-59.407740	83.201196
1.220625	-73.551450	78.906041
1.221230	-86.847097	73.811340
1.221836	-99.371224	68.174389
1.222441	-111.438515	62.231610
1.223047	-122.929293	55.014274
1.223652	-134.008189	47.188264
1.224258	-144.593191	39.153217
1.224863	-154.221994	30.779264
1.225469	-162.426221	21.541779
1.226074	-169.382652	12.710168
1.226680	-175.192132	4.167575
1.227285	-179.485303	-3.845511
1.227891	-182.411001	-12.281552
1.228496	-184.031799	-20.831464
1.229102	-184.635042	-29.055757
1.229707	-184.094371	-36.931383
1.230312	-182.103001	-45.757029
1.230918	-178.848648	-54.319685
1.231523	-174.749875	-61.607242
1.232129	-169.353493	-67.981380
1.232734	-162.085416	-74.520633
1.233340	-153.386688	-80.528482
1.233945	-143.904291	-85.444513
1.234551	-133.737246	-89.522497
1.235156	-122.480961	-93.763970
1.235762	-110.529095	-97.291571
1.236367	-98.114316	-99.615922
1.236973	-84.895821	-101.307739
1.237578	-70.492710	-102.967022
1.238184	-55.406774	-103.464535
1.238789	-40.337240	-102.675563
1.239395	-24.888022	-101.347052
