LabVIEW Measurement	
Writer_Version	2
Reader_Version	2
Separator	Tab
Decimal_Separator	.
Multi_Headings	No
X_Columns	One
Time_Pref	Absolute
Operator	AlunosGDS-JT
Date	2019/10/09
Time	15:19:08.4651639249999940857
***End_of_Header***	
	
Channels	2		
Samples	2048	2048	
Date	2019/10/09	2019/10/09	
Time	15:30:38.1219217374999891621	15:30:38.1219217374999891621	
Y_Unit_Label	g	Newtons	
X_Dimension	Time	Time	
X0	0.0000000000000000E+0	0.0000000000000000E+0	
Delta_X	0.000605	0.000605	
***End_of_Header***			
X_Value	Acceleration (Trigger)	Force (Trigger)	Comment
0.000000	0.442718	-0.751438
0.000605	-1.695058	-13.382588
0.001211	-3.769656	-25.831544
0.001816	-5.867945	-38.044620
0.002422	-7.876933	-49.685895
0.003027	-9.751664	-60.834266
0.003633	-11.501251	-71.545313
0.004238	-13.109292	-81.149629
0.004844	-14.657798	-89.762442
0.005449	-15.911668	-97.607160
0.006055	-16.958383	-104.223684
0.006660	-17.742660	-109.663527
0.007266	-18.475299	-113.850232
0.007871	-18.884751	-116.771600
0.008477	-19.123497	-118.278239
0.009082	-19.084617	-118.554786
0.009687	-18.945501	-117.373225
0.010293	-18.381138	-114.817876
0.010898	-17.716538	-111.107265
0.011504	-16.777349	-105.913603
0.012109	-15.638295	-99.507201
0.012715	-14.346760	-92.208528
0.013320	-12.821946	-83.791195
0.013926	-11.207223	-74.137263
0.014531	-9.464926	-63.821787
0.015137	-7.683142	-52.875405
0.015742	-5.711211	-41.209457
0.016348	-3.649979	-29.111337
0.016953	-1.541969	-16.657231
0.017559	0.617677	-4.022284
0.018164	2.731761	8.633539
0.018770	4.912063	21.172236
0.019375	6.974510	33.508403
0.019980	8.856531	45.366849
0.020586	10.757385	56.730764
0.021191	12.498467	67.738421
0.021797	14.147817	77.668086
0.022402	15.684173	86.740727
0.023008	17.023093	94.948210
0.023613	18.212570	102.046522
0.024219	19.224657	108.005297
0.024824	19.915987	112.698463
0.025430	20.436003	116.139576
0.026035	20.722741	118.275767
0.026641	20.825408	119.032475
0.027246	20.663207	118.476670
0.027852	20.282307	116.556024
0.028457	19.723411	113.488249
0.029062	18.933667	108.970501
0.029668	17.989011	103.129393
0.030273	16.777058	96.474641
0.030879	15.360378	88.609589
0.031484	13.780282	79.693387
0.032090	12.033125	69.828249
0.032695	10.215499	59.278521
0.033301	8.258756	48.042849
0.033906	6.244908	36.246219
0.034512	4.189143	24.043445
0.035117	2.061694	11.535385
0.035723	-0.063325	-0.979996
0.036328	-2.216897	-13.574816
0.036934	-4.292709	-26.172889
0.037539	-6.353941	-38.236848
0.038145	-8.349564	-49.841792
0.038750	-10.210930	-61.112440
0.039355	-11.924068	-71.601164
0.039961	-13.419722	-81.217952
0.040566	-14.872851	-89.925388
0.041172	-16.103029	-97.662199
0.041777	-17.175867	-104.273300
0.042383	-17.999630	-109.715854
0.042988	-18.618061	-113.880056
0.043594	-19.032373	-116.749910
0.044199	-19.193359	-118.327041
0.044805	-19.098590	-118.481853
0.045410	-18.785730	-117.175575
0.046016	-18.259639	-114.838753
0.046621	-17.440735	-110.958689
0.047227	-16.551969	-105.625940
0.047832	-15.363707	-99.313347
0.048438	-14.072172	-91.928185
0.049043	-12.518198	-83.447680
0.049648	-10.845763	-73.947747
0.050254	-9.077951	-63.600007
0.050859	-7.102376	-52.541650
0.051465	-5.103716	-40.973579
0.052070	-3.036408	-28.829639
0.052676	-0.973354	-16.344624
0.053281	1.253725	-3.837377
0.053887	3.345332	8.857217
0.054492	5.444836	21.587599
0.055098	7.476909	33.837277
0.055703	9.547254	45.731783
0.056309	11.414695	57.105187
0.056914	13.291248	67.948271
0.057520	14.815455	77.912370
0.058125	16.317791	87.054419
0.058730	17.696198	95.160500
0.059336	18.786653	102.231700
0.059941	19.729486	108.137877
0.060547	20.468200	112.776276
0.061152	20.937795	116.160453
0.061758	21.216635	118.406449
0.062363	21.355144	119.030306
0.062969	21.178363	118.373643
0.063574	20.770126	116.705413
0.064180	20.080011	113.454088
0.064785	19.216152	108.930917
0.065391	18.238084	103.227812
0.065996	16.888837	96.335554
0.066602	15.533514	88.472671
0.067207	13.950989	79.478927
0.067812	12.186214	69.654458
0.068418	10.338213	59.061079
0.069023	8.324973	47.837878
0.069629	6.263133	35.931172
0.070234	4.160591	23.661973
0.070840	1.959027	11.429917
0.071445	-0.265014	-1.292331
0.072051	-2.376668	-13.959270
0.072656	-4.510800	-26.322821
0.073262	-6.572640	-38.512581
0.073867	-8.579805	-50.212419
0.074473	-10.435704	-61.328797
0.075078	-12.225386	-71.853310
0.075684	-13.823706	-81.489619
0.076289	-15.363100	-90.223083
0.076895	-16.559259	-97.967485
0.077500	-17.652143	-104.585635
0.078105	-18.488664	-109.896965
0.078711	-19.139292	-114.182902
0.079316	-19.456405	-117.079597
0.079922	-19.669636	-118.357678
0.080527	-19.545707	-118.496494
0.081133	-19.338551	-117.368345
0.081738	-18.778440	-114.799440
0.082344	-18.029398	-110.926425
0.082949	-17.126659	-105.833622
0.083555	-15.914706	-99.461381
0.084160	-14.580038	-92.003016
0.084766	-13.015130	-83.419484
0.085371	-11.261898	-73.849871
0.085977	-9.480113	-63.558796
0.086582	-7.580475	-52.595875
0.087188	-5.543542	-40.784063
0.087793	-3.464693	-28.763756
0.088398	-1.322664	-16.397493
0.089004	0.866750	-3.607193
0.089609	3.011817	9.030465
0.090215	5.260158	21.651042
0.090820	7.290408	33.931087
0.091426	9.377155	45.918045
0.092031	11.279223	57.299041
0.092637	13.055540	68.035844
0.093242	14.755920	78.002925
0.093848	16.263724	87.114608
0.094453	17.618439	95.306094
0.095059	18.799410	102.348826
0.095664	19.847948	108.072265
0.096270	20.569045	112.968775
0.096875	21.109716	116.420190
0.097480	21.464493	118.389910
0.098086	21.509448	119.144992
0.098691	21.341779	118.602201
0.099297	20.979104	116.651731
0.099902	20.338196	113.406912
0.100508	19.567892	108.938779
0.101113	18.582534	103.239741
0.101719	17.349926	96.380019
0.102324	15.902872	88.345243
0.102930	14.364693	79.318693
0.103535	12.593844	69.638733
0.104141	10.700888	59.013361
0.104746	8.739892	47.545335
0.105352	6.664080	35.870440
0.105957	4.626540	23.734092
0.106563	2.428014	11.272394
0.107168	0.247105	-1.364179
0.107773	-1.998806	-13.968760
0.108379	-4.115928	-26.412835
0.108984	-6.201460	-38.583887
0.109590	-8.241430	-50.323580
0.110195	-10.145321	-61.508553
0.110801	-11.882758	-71.906722
0.111406	-13.484724	-81.564449
0.112012	-14.918413	-90.456792
0.112617	-16.161349	-98.020083
0.113223	-17.298581	-104.421334
0.113828	-18.150289	-109.940074
0.114434	-18.786337	-114.142776
0.115039	-19.292381	-116.960031
0.115645	-19.482527	-118.446065
0.116250	-19.428460	-118.609824
0.116855	-19.171489	-117.416605
0.117461	-18.684278	-114.807302
0.118066	-17.946778	-110.892806
0.118672	-17.027638	-105.738728
0.119277	-15.862461	-99.518860
0.119883	-14.546018	-91.970210
0.120488	-13.075272	-83.274432
0.121094	-11.467231	-73.988416
0.121699	-9.653857	-63.663993
0.122305	-7.715339	-52.393074
0.122910	-5.692379	-40.715468
0.123516	-3.566145	-28.656390
0.124121	-1.467248	-16.174900
0.124727	0.699689	-3.535073
0.125332	2.809521	9.118852
0.125938	4.940008	21.664056
0.126543	7.065634	33.966604
0.127148	9.053967	45.809053
0.127754	10.925053	57.361128
0.128359	12.796747	68.006292
0.128965	14.524464	77.929450
0.129570	16.024978	87.286501
0.130176	17.397918	95.303654
0.130781	18.563702	102.244443
0.131387	19.576397	108.209725
0.131992	20.349131	112.900722
0.132598	20.821155	116.268360
0.133203	21.130371	118.279562
0.133809	21.258552	119.062299
0.134414	21.091491	118.464740
0.135020	20.731246	116.547619
0.135625	20.188753	113.297378
0.136230	19.412981	108.744654
0.136836	18.389958	103.126682
0.137441	17.156135	96.166373
0.138047	15.735203	88.081981
0.138652	14.166042	79.253894
0.139258	12.482064	69.489885
0.139863	10.720327	58.845806
0.140469	8.717415	47.579768
0.141074	6.632490	35.765786
0.141680	4.576118	23.575484
0.142285	2.367264	11.012115
0.142891	0.142616	-1.617681
0.143496	-2.010956	-14.191353
0.144102	-4.124433	-26.554362
0.144707	-6.250060	-38.834677
0.145313	-8.126613	-50.569219
0.145918	-10.025644	-61.535394
0.146523	-11.778269	-71.999988
0.147129	-13.414862	-81.858348
0.147734	-14.846729	-90.479296
0.148340	-16.168639	-98.047467
0.148945	-17.263953	-104.678360
0.149551	-18.070707	-110.095157
0.150156	-18.732270	-114.153350
0.150762	-19.132002	-116.951626
0.151367	-19.337943	-118.428984
0.151973	-19.300278	-118.590574
0.152578	-18.998961	-117.369429
0.153184	-18.534834	-114.651406
0.153789	-17.860514	-110.834785
0.154395	-16.887306	-105.837146
0.155000	-15.787739	-99.235263
0.155605	-14.504101	-91.712641
0.156211	-12.985970	-83.185232
0.156816	-11.286805	-73.677707
0.157422	-9.530535	-63.353013
0.158027	-7.619962	-52.209523
0.158633	-5.560552	-40.557674
0.159238	-3.583154	-28.550923
0.159844	-1.387058	-16.037982
0.160449	0.657164	-3.381888
0.161055	2.877560	9.277189
0.161660	5.023842	21.674359
0.162266	7.164656	34.172116
0.162871	9.131119	46.233092
0.163477	11.065992	57.368991
0.164082	12.867217	68.125858
0.164687	14.556054	78.145266
0.165293	16.060821	87.326899
0.165898	17.414928	95.386347
0.166504	18.555805	102.391935
0.167109	19.580650	108.265577
0.167715	20.332121	113.009986
0.168320	20.859428	116.316078
0.168926	21.164390	118.296914
0.169531	21.295609	119.078838
0.170137	21.159530	118.528455
0.170742	20.755546	116.397687
0.171348	20.186323	113.249389
0.171953	19.346764	108.894315
0.172559	18.278787	103.105534
0.173164	17.164032	96.130313
0.173770	15.786840	88.151117
0.174375	14.262634	79.217834
0.174980	12.513047	69.390112
0.175586	10.694813	58.745219
0.176191	8.743537	47.446103
0.176797	6.646463	35.608805
0.177402	4.538453	23.407929
0.178008	2.329599	10.822598
0.178613	0.300564	-1.729926
0.179219	-1.895532	-14.175357
0.179824	-3.999289	-26.819521
0.180430	-6.054446	-38.988405
0.181035	-8.040349	-50.575726
0.181641	-9.976437	-61.715150
0.182246	-11.672565	-72.166188
0.182852	-13.357757	-81.848859
0.183457	-14.696677	-90.472789
0.184062	-15.988213	-98.186554
0.184668	-17.032498	-104.751835
0.185273	-17.859906	-110.128777
0.185879	-18.543946	-114.198899
0.186484	-18.957651	-116.935088
0.187090	-19.150834	-118.578916
0.187695	-19.141115	-118.631514
0.188301	-18.909659	-117.169339
0.188906	-18.403615	-114.600705
0.189512	-17.684948	-110.795201
0.190117	-16.740900	-105.573884
0.190723	-15.594556	-99.192968
0.191328	-14.215541	-91.612054
0.191934	-12.733252	-83.091423
0.192539	-11.097874	-73.578476
0.193145	-9.406606	-63.235345
0.193750	-7.557998	-52.155840
0.194355	-5.533822	-40.557403
0.194961	-3.396653	-28.447895
0.195566	-1.336636	-15.774178
0.196172	0.835160	-3.282657
0.196777	3.028827	9.201816
0.197383	5.054217	21.907255
0.197988	7.145824	34.259961
0.198594	9.066117	46.161786
0.199199	11.000990	57.515940
0.199805	12.835627	68.281754
0.200410	14.424835	78.238261
0.201016	15.930816	87.336930
0.201621	17.344459	95.436505
0.202227	18.471970	102.421216
0.202832	19.461580	108.369147
0.203437	20.163845	112.888793
0.204043	20.671711	116.142288
0.204648	20.977282	118.464469
0.205254	21.014946	119.097816
0.205859	20.887372	118.398586
0.206465	20.505258	116.456250
0.207070	19.956082	113.166153
0.207676	19.135355	108.673619
0.208281	18.099575	102.893244
0.208887	16.906454	95.965740
0.209492	15.503747	87.998474
0.210098	13.939446	78.964062
0.210703	12.162522	69.070727
0.211309	10.297511	58.360222
0.211914	8.404555	47.298883
0.212520	6.403464	35.381332
0.213125	4.305782	22.978468
0.213730	2.183801	10.606512
0.214336	0.019294	-1.834580
0.214941	-2.128203	-14.502062
0.215547	-4.244110	-26.946137
0.216152	-6.254920	-39.057542
0.216758	-8.296712	-50.761989
0.217363	-10.087001	-61.886500
0.217969	-11.842663	-72.373598
0.218574	-13.441592	-81.997164
0.219180	-14.835794	-90.547619
0.219785	-16.074477	-98.273042
0.220391	-17.123622	-104.958160
0.220996	-17.940096	-110.162396
0.221602	-18.710400	-114.107259
0.222207	-19.012325	-117.080139
0.222812	-19.150834	-118.510592
0.223418	-19.097982	-118.527944
0.224023	-18.754140	-117.201874
0.224629	-18.236554	-114.570068
0.225234	-17.497839	-110.718473
0.225840	-16.514304	-105.445642
0.226445	-15.414130	-99.092652
0.227051	-14.082499	-91.515534
0.227656	-12.552218	-82.998156
0.228262	-10.859128	-73.430442
0.228867	-9.113186	-62.938464
0.229473	-7.176490	-52.098633
0.230078	-5.148670	-40.392830
0.230684	-3.077718	-28.022501
0.231289	-1.047468	-15.626686
0.231895	1.134656	-3.050032
0.232500	3.290657	9.581661
0.233105	5.350067	22.153165
0.233711	7.436814	34.471438
0.234316	9.394772	46.328799
0.234922	11.375815	57.679700
0.235527	13.187974	68.456359
0.236133	14.805127	78.440520
0.236738	16.288631	87.336117
0.237344	17.660356	95.454399
0.237949	18.725903	102.643267
0.238555	19.651726	108.385956
0.239160	20.388619	112.965250
0.239766	20.980927	116.321230
0.240371	21.201448	118.366051
0.240977	21.223925	119.041694
0.241582	21.121866	118.392621
0.242187	20.668674	116.368677
0.242793	20.037486	113.072344
0.243398	19.210077	108.523145
0.244004	18.197990	102.673362
0.244609	16.964166	95.722542
0.245215	15.559029	87.880806
0.245820	13.987438	78.773190
0.246426	12.266404	68.755951
0.247031	10.371625	58.289188
0.247637	8.327403	47.042670
0.248242	6.263133	35.158739
0.248848	4.146619	22.899571
0.249453	1.993047	10.393951
0.250059	-0.175712	-2.146916
0.250664	-2.252739	-14.756377
0.251270	-4.423928	-27.211025
0.251875	-6.426233	-39.366624
0.252480	-8.446763	-50.975364
0.253086	-10.387712	-62.124819
0.253691	-12.141551	-72.749377
0.254297	-13.700385	-82.156856
0.254902	-15.146224	-90.695653
0.255508	-16.425002	-98.478284
0.256113	-17.434660	-105.009132
0.256719	-18.224404	-110.272744
0.257324	-18.850732	-114.352355
0.257930	-19.258969	-117.100474
0.258535	-19.405375	-118.533638
0.259141	-19.296633	-118.585694
0.259746	-19.072468	-117.308697
0.260352	-18.519039	-114.690176
0.260957	-17.704995	-110.749110
0.261562	-16.796789	-105.486582
0.262168	-15.637080	-98.919674
0.262773	-14.227691	-91.591449
0.263379	-12.636660	-83.011170
0.263984	-11.004927	-73.260175
0.264590	-9.232255	-62.888577
0.265195	-7.370281	-51.832659
0.265801	-5.320592	-40.166441
0.266406	-3.218050	-27.973428
0.267012	-1.091208	-15.543180
0.267617	1.136478	-2.881663
0.268223	3.241450	9.755723
0.268828	5.430864	22.296047
0.269434	7.539481	34.643331
0.270039	9.504121	46.447281
0.270645	11.421377	57.759410
0.271250	13.211059	68.706606
0.271855	14.867092	78.567949
0.272461	16.388261	87.520482
0.273066	17.739938	95.612736
0.273672	18.947639	102.691527
0.274277	19.931174	108.526399
0.274883	20.635262	113.109759
0.275488	21.178970	116.437813
0.276094	21.353321	118.386114
0.276699	21.469353	119.107577
0.277305	21.318087	118.334058
0.277910	20.927467	116.323941
0.278516	20.317542	113.184048
0.279121	19.488918	108.486272
0.279727	18.476223	102.546476
0.280332	17.198660	95.798999
0.280938	15.773475	87.835257
0.281543	14.209782	78.762616
0.282148	12.407343	68.832679
0.282754	10.507097	58.170977
0.283359	8.526661	46.889214
0.283965	6.513421	35.043782
0.284570	4.418169	22.780818
0.285176	2.280392	10.314511
0.285781	0.068501	-2.234489
0.286387	-2.102080	-14.913087
0.286992	-4.298784	-27.484590
0.287598	-6.350296	-39.468024
0.288203	-8.364144	-51.016575
0.288809	-10.272895	-62.282071
0.289414	-11.955050	-72.695423
0.290020	-13.541828	-82.271813
0.290625	-14.961545	-90.884356
0.291230	-16.316260	-98.533051
0.291836	-17.333815	-105.045191
0.292441	-18.180664	-110.389056
0.293047	-18.890219	-114.421763
0.293652	-19.311821	-117.145751
0.294258	-19.455190	-118.677876
0.294863	-19.396263	-118.675436
0.295469	-19.073683	-117.202416
0.296074	-18.540301	-114.784257
0.296680	-17.779717	-110.811740
0.297285	-16.853894	-105.420157
0.297891	-15.721522	-98.973357
0.298496	-14.403257	-91.429045
0.299102	-12.806151	-82.809724
0.299707	-11.162876	-73.258277
0.300312	-9.370764	-62.867971
0.300918	-7.562250	-51.775994
0.301523	-5.427511	-40.091339
0.302129	-3.290949	-27.906731
0.302734	-1.264344	-15.375354
0.303340	0.933575	-2.854551
0.303945	3.146681	9.771177
0.304551	5.251653	22.511863
0.305156	7.305595	34.722228
0.305762	9.320050	46.539734
0.306367	11.304131	57.990137
0.306973	13.146665	68.675698
0.307578	14.851297	78.623529
0.308184	16.300174	87.683156
0.308789	17.602644	95.710612
0.309395	18.831000	102.676344
0.310000	19.756216	108.481392
0.310605	20.444508	113.020017
0.311211	21.020414	116.307945
0.311816	21.370939	118.407804
0.312422	21.415893	118.971472
0.313027	21.288927	118.182771
0.313633	20.939617	116.354307
0.314238	20.262259	113.037369
0.314844	19.465833	108.448857
0.315449	18.377808	102.591211
0.316055	17.149452	95.613550
0.316660	15.726090	87.587721
0.317266	14.210389	78.548970
0.317871	12.436502	68.676241
0.318477	10.570884	57.992849
0.319082	8.603206	46.741722
0.319688	6.527393	34.844234
0.320293	4.431534	22.433779
0.320898	2.242728	10.097340
0.321504	0.047846	-2.416414
0.322109	-2.137315	-15.147067
0.322715	-4.193687	-27.543695
0.323320	-6.324782	-39.688720
0.323926	-8.199513	-51.275499
0.324531	-10.082141	-62.389165
0.325137	-11.950798	-72.849422
0.325742	-13.501126	-82.435301
0.326348	-14.945750	-91.034017
0.326953	-16.248828	-98.671867
0.327559	-17.297366	-105.213289
0.328164	-18.160617	-110.458193
0.328770	-18.802132	-114.479241
0.329375	-19.196397	-117.397897
0.329980	-19.348270	-118.660524
0.330586	-19.327008	-118.535807
0.331191	-19.057888	-117.257997
0.331797	-18.493524	-114.635951
0.332402	-17.807054	-110.672653
0.333008	-16.872726	-105.378946
0.333613	-15.705727	-98.928350
0.334219	-14.359517	-91.355299
0.334824	-12.811619	-82.727574
0.335430	-11.125211	-73.122986
0.336035	-9.360437	-62.752201
0.336641	-7.495426	-51.769759
0.337246	-5.476110	-39.946559
0.337852	-3.394831	-27.685764
0.338457	-1.278316	-15.348241
0.339062	0.940865	-2.724953
0.339668	3.129671	10.017359
0.340273	5.219456	22.612179
0.340879	7.293445	34.893308
0.341484	9.312153	46.788626
0.342090	11.282261	58.115668
0.342695	13.026380	68.786317
0.343301	14.721293	78.729268
0.343906	16.236387	87.704304
0.344512	17.597177	95.771886
0.345117	18.750811	102.810822
0.345723	19.769581	108.408731
0.346328	20.559932	113.007545
0.346934	21.018591	116.470891
0.347539	21.367901	118.432748
0.348145	21.338742	119.000211
0.348750	21.243972	118.283629
0.349355	20.893447	116.280561
0.349961	20.261652	112.912381
0.350566	19.417841	108.337967
0.351172	18.467718	102.531022
0.351777	17.229642	95.529230
0.352383	15.787448	87.550305
0.352988	14.247446	78.409612
0.353594	12.496644	68.420841
0.354199	10.615231	57.981732
0.354805	8.634795	46.569558
0.355410	6.617910	34.624894
0.356016	4.480741	22.475532
0.356621	2.359974	9.967200
0.357227	0.188785	-2.644158
0.357832	-1.995769	-15.240334
0.358438	-4.080693	-27.666515
0.359043	-6.141318	-39.832416
0.359648	-8.118716	-51.470979
0.360254	-9.982512	-62.587628
0.360859	-11.766726	-73.050325
0.361465	-13.362010	-82.516639
0.362070	-14.833364	-91.198589
0.362676	-16.065365	-98.937840
0.363281	-17.094462	-105.211662
0.363887	-17.944956	-110.477985
0.364492	-18.628388	-114.578202
0.365098	-19.077327	-117.286736
0.365703	-19.220089	-118.653204
0.366309	-19.227379	-118.690077
0.366914	-18.927276	-117.291888
0.367520	-18.401792	-114.608026
0.368125	-17.701958	-110.600534
0.368730	-16.697160	-105.337464
0.369336	-15.601846	-98.878463
0.369941	-14.233158	-91.427418
0.370547	-12.759982	-82.634849
0.371152	-11.204793	-73.032973
0.371758	-9.434551	-62.734578
0.372363	-7.447433	-51.569669
0.372969	-5.440268	-39.824282
0.373574	-3.394223	-27.658110
0.374180	-1.183547	-15.128902
0.374785	0.928107	-2.508325
0.375391	3.077426	10.147769
0.375996	5.097956	22.673724
0.376602	7.163441	34.914726
0.377207	9.145092	46.777239
0.377812	11.132817	58.181822
0.378418	12.901236	68.866028
0.379023	14.581569	78.588825
0.379629	16.093625	87.775881
0.380234	17.428293	95.880607
0.380840	18.573422	102.758495
0.381445	19.506535	108.541311
0.382051	20.210015	113.070446
0.382656	20.728209	116.341293
0.383262	21.005834	118.267091
0.383867	21.046536	118.885797
0.384473	21.062939	118.223711
0.385078	20.610962	116.176991
0.385684	20.013794	112.831857
0.386289	19.190030	108.042984
0.386895	18.211962	102.332287
0.387500	16.934399	95.457111
0.388105	15.500102	87.233632
0.388711	13.890239	78.172107
0.389316	12.264581	68.390204
0.389922	10.338820	57.684309
0.390527	8.422779	46.367841
0.391133	6.384632	34.542744
0.391738	4.313072	22.270562
0.392344	2.169828	9.766568
0.392949	-0.003183	-2.854009
0.393555	-2.145820	-15.452082
0.394160	-4.259904	-27.886397
0.394766	-6.312024	-39.929749
0.395371	-8.263907	-51.763252
0.395977	-10.083356	-62.854686
0.396582	-11.804999	-72.973868
0.397187	-13.402104	-82.625902
0.397793	-14.806634	-91.267184
0.398398	-16.088450	-98.842404
0.399004	-17.110864	-105.283239
0.399609	-17.951638	-110.568541
0.400215	-18.518432	-114.590945
0.400820	-18.910266	-117.248508
0.401426	-19.046953	-118.579187
0.402031	-19.007465	-118.577018
0.402637	-18.717690	-117.278331
0.403242	-18.203141	-114.608839
0.403848	-17.465642	-110.390683
0.404453	-16.552576	-105.237961
0.405059	-15.386792	-98.896358
0.405664	-13.967683	-91.071161
0.406270	-12.498151	-82.398428
0.406875	-10.759499	-72.881414
0.407480	-8.929722	-62.418718
0.408086	-7.090833	-51.319963
0.408691	-5.004086	-39.542583
0.409297	-2.942247	-27.420876
0.409902	-0.924147	-15.027501
0.410508	1.260407	-2.357308
0.411113	3.466831	10.367923
0.411719	5.572410	22.823656
0.412324	7.683457	34.989015
0.412930	9.631088	47.121025
0.413535	11.545306	58.461081
0.414141	13.333166	68.946009
0.414746	14.959431	78.848292
0.415352	16.406485	87.922559
0.415957	17.749051	95.896061
0.416563	18.929414	102.815973
0.417168	19.888042	108.578726
0.417773	20.617644	113.145819
0.418379	21.085416	116.422088
0.418984	21.333882	118.267633
0.419590	21.415893	118.759453
0.420195	21.217850	118.181958
0.420801	20.785921	116.064475
0.421406	20.135293	112.508676
0.422012	19.286014	107.997706
0.422617	18.306124	102.207570
0.423223	17.040103	95.244820
0.423828	15.630106	87.153108
0.424434	14.026318	78.112731
0.425039	12.253039	68.163815
0.425645	10.395317	57.475001
0.426250	8.362637	46.117322
0.426855	6.260095	34.190553
0.427461	4.159376	21.968800
0.428066	2.013094	9.499240
0.428672	-0.213984	-3.256629
0.429277	-2.348116	-15.741643
0.429883	-4.450658	-28.024399
0.430488	-6.570817	-40.284922
0.431094	-8.464988	-51.922944
0.431699	-10.432666	-63.005974
0.432305	-12.194403	-73.383808
0.432910	-13.735012	-82.951794
0.433516	-15.147439	-91.529903
0.434121	-16.446264	-99.129525
0.434727	-17.402462	-105.520473
0.435332	-18.221974	-110.749923
0.435937	-18.938211	-114.864781
0.436543	-19.292381	-117.504178
0.437148	-19.441825	-118.683299
0.437754	-19.401730	-118.839195
0.438359	-19.069430	-117.436939
0.438965	-18.519039	-114.575762
0.439570	-17.794297	-110.524890
0.440176	-16.755480	-105.213831
0.440781	-15.590911	-98.729616
0.441387	-14.238018	-91.100984
0.441992	-12.736897	-82.451027
0.442598	-11.070537	-72.890361
0.443203	-9.302725	-62.415735
0.443809	-7.352057	-51.313727
0.444414	-5.298722	-39.506795
0.445020	-3.225947	-27.453953
0.445625	-1.073590	-15.010963
0.446230	1.131618	-2.095402
0.446836	3.267573	10.434619
0.447441	5.418714	22.951898
0.448047	7.490274	35.222724
0.448652	9.494402	47.151662
0.449258	11.428060	58.423394
0.449863	13.249331	69.088350
0.450469	14.859194	78.971111
0.451074	16.416205	88.044837
0.451680	17.788538	95.957878
0.452285	18.920909	102.780456
0.452891	19.940287	108.565712
0.453496	20.596990	113.251558
0.454102	21.079948	116.325568
0.454707	21.395239	118.138578
0.455313	21.490615	118.954934
0.455918	21.259160	118.184398
0.456523	20.920785	116.092943
0.457129	20.278054	112.664844
0.457734	19.423308	108.025361
0.458340	18.390566	102.177475
0.458945	17.103890	95.121730
0.459551	15.705436	87.062281
0.460156	14.065198	77.963612
0.460762	12.333836	68.059703
0.461367	10.454244	57.306361
0.461973	8.504184	45.867616
0.462578	6.440522	34.237457
0.463184	4.332512	21.937892
0.463789	2.121836	9.264175
0.464395	-0.020801	-3.268829
0.465000	-2.197457	-15.804002
0.465605	-4.313364	-28.224489
0.466211	-6.387354	-40.399879
0.466816	-8.375079	-52.035190
0.467422	-10.294157	-63.076195
0.468027	-12.007295	-73.450234
0.468633	-13.518744	-83.074071
0.469238	-14.966405	-91.664110
0.469844	-16.256118	-99.104852
0.470449	-17.312553	-105.563853
0.471055	-18.147859	-111.035688
0.471660	-18.797272	-114.783443
0.472266	-19.210976	-117.366447
0.472871	-19.326401	-118.783615
0.473477	-19.226164	-118.718816
0.474082	-18.886574	-117.215973
0.474687	-18.327678	-114.471921
0.475293	-17.616301	-110.447890
0.475898	-16.645523	-105.181296
0.476504	-15.520441	-98.651803
0.477109	-14.193064	-90.955119
0.477715	-12.654885	-82.336070
0.478320	-10.917448	-72.861622
0.478926	-9.173328	-62.212663
0.479531	-7.271867	-51.052363
0.480137	-5.153530	-39.517640
0.480742	-3.081363	-27.254676
0.481348	-0.920502	-14.718419
0.481953	1.183255	-2.070188
0.482559	3.342294	10.538731
0.483164	5.512876	23.052214
0.483770	7.598408	35.376723
0.484375	9.601321	47.227848
0.484980	11.512502	58.494429
0.485586	13.340456	69.118987
0.486191	14.983123	79.087423
0.486797	16.525555	88.078998
0.487402	17.836530	95.877083
0.488008	18.975584	102.942317
0.488613	19.883790	108.764175
0.489219	20.619467	113.159375
0.489824	21.137053	116.424528
0.490430	21.436548	118.270344
0.491035	21.460848	118.859498
0.491641	21.325377	118.110381
0.492246	20.882512	115.932708
0.492852	20.293242	112.545007
0.493457	19.412373	107.868379
0.494063	18.335891	101.999617
0.494668	17.097208	94.831898
0.495273	15.730343	86.897980
0.495879	14.105292	77.794702
0.496484	12.359350	67.649492
0.497090	10.449384	57.020867
0.497695	8.490211	45.793870
0.498301	6.355472	33.891773
0.498906	4.288165	21.578110
0.499512	2.107864	9.077099
0.500117	-0.095523	-3.486542
0.500723	-2.281899	-16.121218
0.501328	-4.392338	-28.537909
0.501934	-6.427448	-40.666666
0.502539	-8.477138	-52.280557
0.503145	-10.359159	-63.280080
0.503750	-12.141551	-73.859632
0.504355	-13.721040	-83.255182
0.504961	-15.240386	-91.679564
0.505566	-16.434722	-99.325006
0.506172	-17.483259	-105.827115
0.506777	-18.341043	-110.967365
0.507383	-18.905406	-114.871559
0.507988	-19.327008	-117.562741
0.508594	-19.491639	-118.875526
0.509199	-19.419955	-118.821572
0.509805	-19.170274	-117.364820
0.510410	-18.583434	-114.573322
0.511016	-17.834392	-110.602160
0.511621	-16.856931	-105.210035
0.512227	-15.703297	-98.543082
0.512832	-14.297553	-91.025341
0.513437	-12.764234	-82.468650
0.514043	-11.121566	-72.643096
0.514648	-9.342212	-62.156540
0.515254	-7.434676	-51.053990
0.515859	-5.366154	-39.330022
0.516465	-3.257537	-27.134297
0.517070	-1.131303	-14.637895
0.517676	1.057504	-1.993730
0.518281	3.291872	10.642843
0.518887	5.385302	23.198892
0.519492	7.487844	35.544278
0.520098	9.498046	47.230830
0.520703	11.449322	58.567904
0.521309	13.248116	69.448946
0.521914	14.960646	79.211870
0.522520	16.477562	88.148135
0.523125	17.841390	96.123806
0.523730	19.017501	103.071102
0.524336	19.956689	108.751432
0.524941	20.668674	113.208449
0.525547	21.270702	116.436187
0.526152	21.551972	118.323213
0.526758	21.595712	118.815033
0.527363	21.401314	118.028501
0.527969	20.992469	115.866283
0.528574	20.428106	112.596521
0.529180	19.577612	107.728750
0.529785	18.597722	101.743947
0.530391	17.339599	94.907270
0.530996	15.894974	86.840230
0.531602	14.244409	77.658055
0.532207	12.505757	67.677960
0.532813	10.716075	56.988332
0.533418	8.663955	45.639600
0.534023	6.644033	33.746722
0.534629	4.488638	21.460170
0.535234	2.339319	8.916322
0.535840	0.172990	-3.610175
0.536445	-2.022498	-16.295551
0.537051	-4.151163	-28.818794
0.537656	-6.288939	-40.706250
0.538262	-8.327087	-52.297096
0.538867	-10.128311	-63.466885
0.539473	-11.903413	-73.829808
0.540078	-13.418507	-83.285548
0.540684	-14.888038	-91.849830
0.541289	-16.166816	-99.424508
0.541895	-17.164324	-105.786446
0.542500	-18.085895	-111.032164
0.543105	-18.774187	-114.964826
0.543711	-19.167844	-117.654110
0.544316	-19.346448	-118.943307
0.544922	-19.238314	-118.836484
0.545527	-19.003213	-117.272095
0.546133	-18.448570	-114.705630
0.546738	-17.638778	-110.553087
0.547344	-16.771882	-105.053596
0.547949	-15.615211	-98.575346
0.548555	-14.299375	-90.907673
0.549160	-12.809796	-82.241718
0.549766	-11.113669	-72.572603
0.550371	-9.374409	-62.106653
0.550977	-7.396404	-50.933068
0.551582	-5.366154	-39.203678
0.552187	-3.238704	-26.960235
0.552793	-1.142237	-14.473865
0.553398	1.003437	-1.988037
0.554004	3.106586	10.704117
0.554609	5.248008	23.417147
0.555215	7.268538	35.536957
0.555820	9.349210	47.344161
0.556426	11.206324	58.707533
0.557031	13.063438	69.366253
0.557637	14.729190	79.239253
0.558242	16.226059	88.163589
0.558848	17.565587	96.127060
0.559453	18.779970	103.015792
0.560059	19.700934	108.694496
0.560664	20.398338	113.112742
0.561270	20.906205	116.326381
0.561875	21.262805	118.324298
0.562480	21.329629	118.674862
0.563086	21.225747	117.795876
0.563691	20.768911	115.929455
0.564297	20.155948	112.496205
0.564902	19.320034	107.691335
0.565508	18.283647	101.764552
0.566113	17.047393	94.732124
0.566719	15.583937	86.609503
0.567324	14.113190	77.448204
0.567930	12.384258	67.548905
0.568535	10.506489	56.810474
0.569141	8.498716	45.495633
0.569746	6.498234	33.487256
0.570352	4.387794	21.139159
0.570957	2.177726	8.846643
0.571562	-0.006221	-3.718896
0.572168	-2.159792	-16.536580
0.572773	-4.258082	-28.873019
0.573379	-6.270107	-40.851844
0.573984	-8.256617	-52.517520
0.574590	-10.043262	-63.569370
0.575195	-11.769764	-73.913043
0.575801	-13.467714	-83.438462
0.576406	-14.847944	-91.954213
0.577012	-16.118824	-99.566849
0.577617	-17.152782	-105.974064
0.578223	-17.955283	-111.049516
0.578828	-18.545161	-114.972688
0.579434	-18.948538	-117.796722
0.580039	-19.032373	-118.890980
0.580645	-19.021438	-118.680859
0.581250	-18.754747	-117.278602
0.581855	-18.201319	-114.534551
0.582461	-17.456529	-110.394208
0.583066	-16.552576	-105.047360
0.583672	-15.307210	-98.452256
0.584277	-13.997450	-90.803019
0.584883	-12.436187	-82.106156
0.585488	-10.813566	-72.348112
0.586094	-9.005052	-61.909546
0.586699	-7.072001	-50.902973
0.587305	-5.087921	-39.009010
0.587910	-3.061316	-26.739540
0.588516	-0.915034	-14.400661
0.589121	1.274380	-1.796623
0.589727	3.441316	10.945960
0.590332	5.593673	23.480048
0.590938	7.558313	35.732438
0.591543	9.618331	47.559162
0.592148	11.459649	58.842282
0.592754	13.225639	69.495308
0.593359	14.856764	79.305950
0.593965	16.354848	88.178772
0.594570	17.699843	96.162035
0.595176	18.802448	103.129122
0.595781	19.827293	108.590113
0.596387	20.583017	113.140125
0.596992	21.016161	116.436729
0.597598	21.253085	118.230489
0.598203	21.274955	118.741288
0.598809	21.044106	117.870435
0.599414	20.717881	115.751868
0.600020	20.064216	112.263851
0.600625	19.264752	107.543030
0.601230	18.197990	101.628177
0.601836	16.956876	94.581107
0.602441	15.515897	86.440593
0.603047	13.903604	77.161626
0.603652	12.158269	67.256632
0.604258	10.302371	56.700940
0.604863	8.285485	45.189805
0.605469	6.215748	33.196339
0.606074	4.163628	21.003054
0.606680	1.974215	8.487674
0.607285	-0.139262	-4.085185
0.607891	-2.306806	-16.691664
0.608496	-4.416638	-29.101848
0.609102	-6.451748	-41.166891
0.609707	-8.469241	-52.792712
0.610313	-10.374347	-63.867878
0.610918	-12.024912	-74.222396
0.611523	-13.626878	-83.583514
0.612129	-15.030800	-92.205546
0.612734	-16.196584	-99.788086
0.613340	-17.249981	-105.939089
0.613945	-18.063417	-111.097234
0.614551	-18.708578	-115.050230
0.615156	-19.088870	-117.685560
0.615762	-19.195789	-118.847058
0.616367	-19.167844	-118.788766
0.616973	-18.814889	-117.334996
0.617578	-18.244451	-114.453756
0.618184	-17.522139	-110.358148
0.618789	-16.490004	-104.927252
0.619395	-15.352772	-98.460389
0.620000	-13.992590	-90.835825
0.620605	-12.520628	-81.924232
0.621211	-10.822071	-72.313680
0.621816	-9.002014	-61.957535
0.622422	-7.075039	-50.706408
0.623027	-5.034461	-38.912761
0.623633	-2.903367	-26.706734
0.624238	-0.777740	-14.173459
0.624844	1.437189	-1.488354
0.625449	3.548235	11.123004
0.626055	5.624655	23.633776
0.626660	7.748459	35.883454
0.627266	9.694268	47.686591
0.627871	11.606056	59.020682
0.628477	13.372653	69.655814
0.629082	15.064528	79.273957
0.629687	16.575369	88.390249
0.630293	17.845035	96.416621
0.630898	18.991379	103.195819
0.631504	19.913557	108.810537
0.632109	20.593345	113.255624
0.632715	21.112753	116.391180
0.633320	21.373369	118.209341
0.633926	21.378836	118.682725
0.634531	21.252477	117.862302
0.635137	20.844848	115.727196
0.635742	20.232492	112.258971
0.636348	19.285407	107.383067
0.636953	18.273319	101.486107
0.637559	16.927109	94.560773
0.638164	15.505570	86.209866
0.638770	13.880519	77.063208
0.639375	12.175279	67.158214
0.639980	10.350970	56.434154
0.640586	8.285485	45.032824
0.641191	6.251590	33.147537
0.641797	4.147226	20.856105
0.642402	1.954167	8.334488
0.643008	-0.254686	-4.298018
0.643613	-2.417371	-16.923475
0.644219	-4.512623	-29.307089
0.644824	-6.575677	-41.330108
0.645430	-8.540925	-53.052449
0.646035	-10.367664	-64.089116
0.646641	-12.114821	-74.200435
0.647246	-13.651178	-83.742935
0.647852	-15.132859	-92.270074
0.648457	-16.299858	-99.744977
0.649062	-17.387275	-106.122098
0.649668	-18.204356	-111.283496
0.650273	-18.803347	-115.145666
0.650879	-19.169059	-117.744123
0.651484	-19.271119	-118.934360
0.652090	-19.204294	-118.778464
0.652695	-18.838582	-117.348010
0.653301	-18.364735	-114.572779
0.653906	-17.646676	-110.243734
0.654512	-16.612718	-104.977410
0.655117	-15.397120	-98.419450
0.655723	-14.053947	-90.624076
0.656328	-12.558293	-81.886545
0.656934	-10.817211	-72.193300
0.657539	-9.019632	-61.732773
0.658145	-7.061066	-50.485713
0.658750	-5.021704	-38.739241
0.659355	-2.947107	-26.542161
0.659961	-0.851247	-14.106491
0.660566	1.353962	-1.460157
0.661172	3.514216	11.286764
0.661777	5.667180	23.752529
0.662383	7.733880	35.864476
0.662988	9.751980	47.937652
0.663594	11.697180	59.268218
0.664199	13.463777	69.778362
0.664805	15.140465	79.550504
0.665410	16.581444	88.526625
0.666016	17.896672	96.423128
0.666621	19.066708	103.228083
0.667227	20.033841	108.884825
0.667832	20.716059	113.307138
0.668438	21.245795	116.483362
0.669043	21.499120	118.247841
0.669648	21.572627	118.603556
0.670254	21.333882	117.867453
0.670859	20.877045	115.677038
0.671465	20.237960	111.993540
0.672070	19.426346	107.377915
0.672676	18.326779	101.450319
0.673281	17.103890	94.387253
0.673887	15.699968	86.184109
0.674492	14.103470	77.049380
0.675098	12.348415	67.060880
0.675703	10.414757	56.296964
0.676309	8.403947	44.873945
0.676914	6.321452	32.943651
0.677520	4.197041	20.708342
0.678125	2.020384	8.206247
0.678730	-0.141085	-4.619843
0.679336	-2.299516	-17.030569
0.679941	-4.386871	-29.329321
0.680547	-6.472403	-41.538060
0.681152	-8.438866	-53.136226
0.681758	-10.360982	-64.132767
0.682363	-12.095989	-74.474542
0.682969	-13.662112	-83.955226
0.683574	-14.985845	-92.416481
0.684180	-16.290746	-99.894909
0.684785	-17.369050	-106.208858
0.685391	-18.173982	-111.395471
0.685996	-18.776617	-115.310780
0.686602	-19.142937	-117.822207
0.687207	-19.347663	-118.956050
0.687813	-19.299671	-119.037116
0.688418	-18.981951	-117.448326
0.689023	-18.427915	-114.451587
0.689629	-17.643031	-110.320191
0.690234	-16.649775	-104.918847
0.690840	-15.497356	-98.291750
0.691445	-14.119557	-90.547077
0.692051	-12.597173	-81.836658
0.692656	-10.955112	-72.183269
0.693262	-9.113186	-61.641675
0.693867	-7.211118	-50.422812
0.694473	-5.178438	-38.606390
0.695078	-3.071036	-26.538365
0.695684	-0.880407	-14.065551
0.696289	1.304754	-1.142128
0.696895	3.398792	11.411210
0.697500	5.592458	23.830070
0.698105	7.594763	36.099270
0.698711	9.589778	47.976694
0.699316	11.539839	59.224839
0.699922	13.387233	69.817133
0.700527	15.037798	79.597138
0.701133	16.497002	88.554008
0.701738	17.866297	96.468134
0.702344	18.976191	103.232421
0.702949	19.925099	108.795354
0.703555	20.616429	113.353229
0.704160	21.077518	116.310927
0.704766	21.395846	118.031755
0.705371	21.418323	118.728545
0.705977	21.226355	117.854981
0.706582	20.803538	115.576179
0.707187	20.169920	112.065116
0.707793	19.362559	107.336975
0.708398	18.334069	101.368711
0.709004	17.091133	94.230001
0.709609	15.644686	86.010047
0.710215	14.046973	76.879927
0.710820	12.241496	66.904442
0.711426	10.360083	56.036143
0.712031	8.481099	44.564049
0.712637	6.397997	32.860958
0.713242	4.312465	20.540245
0.713848	2.133986	7.934037
0.714453	0.020509	-4.650480
0.715059	-2.148250	-17.214663
0.715664	-4.269624	-29.615900
0.716270	-6.358801	-41.721069
0.716875	-8.330732	-53.282905
0.717480	-10.162938	-64.254502
0.718086	-11.890656	-74.542052
0.718691	-13.492014	-84.109767
0.719297	-14.885608	-92.541198
0.719902	-16.152237	-99.963504
0.720508	-17.216569	-106.296431
0.721113	-18.022715	-111.597187
0.721719	-18.684278	-115.237848
0.722324	-19.048775	-117.756053
0.722930	-19.164199	-119.009191
0.723535	-19.096160	-118.812354
0.724141	-18.796665	-117.246610
0.724746	-18.270573	-114.404682
0.725352	-17.501484	-110.227737
0.725957	-16.529491	-104.811482
0.726562	-15.411700	-98.234814
0.727168	-14.046050	-90.484447
0.727773	-12.544321	-81.712754
0.728379	-10.843941	-72.164561
0.728984	-8.974677	-61.476831
0.729590	-7.101161	-50.176088
0.730195	-5.039321	-38.574940
0.730801	-3.004211	-26.385722
0.731406	-0.854892	-13.801476
0.732012	1.342419	-1.092783
0.732617	3.479588	11.489836
0.733223	5.634983	24.039378
0.733828	7.681635	36.285803
0.734434	9.687585	48.132049
0.735039	11.574466	59.401883
0.735645	13.387233	69.891692
0.736250	15.031723	79.699623
0.736855	16.548639	88.735662
0.737461	17.849287	96.398184
0.738066	18.985911	103.276343
0.738672	19.891080	109.100098
0.739277	20.544745	113.380071
0.739883	21.168643	116.498816
0.740488	21.392809	118.229675
0.741094	21.455381	118.722038
0.741699	21.220280	117.773644
0.742305	20.900737	115.550423
0.742910	20.208192	112.021194
0.743516	19.371671	107.229339
0.744121	18.252664	101.305267
0.744727	17.035851	94.027200
0.745332	15.685996	85.814295
0.745938	14.063983	76.870709
0.746543	12.323508	66.726042
0.747148	10.446347	55.855031
0.747754	8.488389	44.514434
0.748359	6.467251	32.622097
0.748965	4.309427	20.304366
0.749570	2.210530	7.795222
0.750176	0.011397	-4.846232
0.750781	-2.131848	-17.456235
0.751387	-4.187612	-29.756885
0.751992	-6.250667	-41.864494
0.752598	-8.224420	-53.491400
0.753203	-10.096114	-64.338822
0.753809	-11.860281	-74.752716
0.754414	-13.459209	-84.329378
0.755020	-14.861916	-92.597050
0.755625	-16.094525	-99.981940
0.756230	-17.127874	-106.333304
0.756836	-17.967433	-111.490907
0.757441	-18.596799	-115.305358
0.758047	-18.937604	-117.809735
0.758652	-19.147797	-119.037116
0.759258	-19.067000	-118.876339
0.759863	-18.748672	-117.292430
0.760469	-18.251134	-114.356964
0.761074	-17.467464	-110.235600
0.761680	-16.486359	-104.913696
0.762285	-15.334548	-98.090575
0.762891	-14.040582	-90.396874
0.763496	-12.478104	-81.768877
0.764102	-10.810529	-71.994837
0.764707	-9.042717	-61.413930
0.765312	-7.147331	-50.170937
0.765918	-5.118903	-38.410910
0.766523	-3.074073	-26.212202
0.767129	-0.912604	-13.676216
0.767734	1.188115	-1.031238
0.768340	3.378137	11.606148
0.768945	5.466706	24.080318
0.769551	7.543126	36.394524
0.770156	9.510196	48.233178
0.770762	11.415302	59.281504
0.771367	13.133907	69.996617
0.771973	14.774145	79.939568
0.772578	16.267976	88.742169
0.773184	17.593532	96.614813
0.773789	18.750811	103.418683
0.774395	19.678456	109.024455
0.775000	20.398946	113.400947
0.775605	20.868540	116.438356
0.776211	21.128548	118.186567
0.776816	21.197195	118.624704
0.777422	20.949944	117.765510
0.778027	20.556287	115.379343
0.778633	19.980382	111.902442
0.779238	19.137785	107.267025
0.779844	18.071023	101.054748
0.780449	16.869397	93.894078
0.781055	15.437530	85.814295
0.781660	13.813695	76.600398
0.782266	12.117567	66.584786
0.782871	10.319380	55.792402
0.783477	8.343198	44.393783
0.784082	6.292293	32.446137
0.784687	4.306390	20.222216
0.785293	2.107864	7.630107
0.785898	-0.048746	-4.983421
0.786504	-2.168905	-17.473316
0.787109	-4.247147	-29.977309
0.787715	-6.304734	-42.131010
0.788320	-8.216523	-53.458865
0.788926	-10.047514	-64.457574
0.789531	-11.755792	-74.812635
0.790137	-13.284250	-84.214963
0.790742	-14.648078	-92.651546
0.791348	-15.870359	-100.049721
0.791953	-16.928616	-106.421420
0.792559	-17.687378	-111.490907
0.793164	-18.293658	-115.328404
0.793770	-18.666661	-117.777201
0.794375	-18.783300	-118.957677
0.794980	-18.663016	-118.892878
0.795586	-18.382960	-117.152258
0.796191	-17.828317	-114.231705
0.796797	-17.041610	-110.215808
0.797402	-16.060505	-104.659923
0.798008	-14.930563	-97.985650
0.798613	-13.599540	-90.244231
0.799219	-12.083232	-81.512665
0.799824	-10.368272	-71.763297
0.800430	-8.584057	-61.211129
0.801035	-6.684419	-50.015312
0.801641	-4.630477	-38.245524
0.802246	-2.563169	-26.018619
0.802852	-0.534742	-13.465824
0.803457	1.638877	-0.809458
0.804063	3.671557	11.595846
0.804668	5.817839	24.310232
0.805273	7.826826	36.624167
0.805879	9.796327	48.385821
0.806484	11.702648	59.585976
0.807090	13.468637	70.138958
0.807695	15.080930	79.969663
0.808301	16.497002	88.872038
0.808906	17.729003	96.643823
0.809512	18.908759	103.420581
0.810117	19.775048	109.042891
0.810723	20.395909	113.360550
0.811328	20.903775	116.314723
0.811934	21.176540	118.091402
0.812539	21.114576	118.667813
0.813145	20.902560	117.574639
0.813750	20.542922	115.244052
0.814355	19.856452	111.770404
0.814961	18.970724	106.976651
0.815566	17.847465	100.915661
0.816172	16.564434	93.724083
0.816777	15.117380	85.506297
0.817383	13.577986	76.369671
0.817988	11.847232	66.314475
0.818594	9.990118	55.445905
0.819199	7.955615	44.050268
0.819805	5.908963	32.244150
0.820410	3.786374	19.752899
0.821016	1.670467	7.213931
0.821621	-0.535957	-5.116001
0.822227	-2.681024	-17.729257
0.822832	-4.674824	-30.165741
0.823438	-6.681989	-42.260607
0.824043	-8.662424	-53.772827
0.824648	-10.460611	-64.715414
0.825254	-12.117859	-75.031432
0.825859	-13.735619	-84.492052
0.826465	-15.145617	-92.879833
0.827070	-16.369112	-100.239780
0.827676	-17.358723	-106.603615
0.828281	-18.054913	-111.721634
0.828887	-18.643576	-115.311594
0.829492	-19.011718	-117.846066
0.830098	-19.145367	-119.162647
0.830703	-18.986203	-118.801509
0.831309	-18.650866	-117.106167
0.831914	-18.099260	-114.242279
0.832520	-17.264561	-110.031172
0.833125	-16.298036	-104.605156
0.833730	-15.080614	-97.850630
0.834336	-13.702207	-90.123580
0.834941	-12.142766	-81.330198
0.835547	-10.404722	-71.597911
0.836152	-8.604712	-60.950307
0.836758	-6.677129	-49.803834
0.837363	-4.601317	-38.195094
0.837969	-2.528542	-25.729330
0.838574	-0.428430	-13.123393
0.839180	1.760984	-0.608284
0.839785	3.903620	12.023951
0.840391	6.055977	24.560751
0.840996	8.145154	36.821545
0.841602	10.064840	48.639051
0.842207	11.990601	59.833784
0.842812	13.738365	70.397068
0.843418	15.272291	80.164601
0.844023	16.805610	89.066976
0.844629	18.115978	96.751730
0.845234	19.241667	103.619315
0.845840	20.161415	109.282565
0.846445	20.837558	113.403116
0.847051	21.362434	116.435102
0.847656	21.555617	118.243232
0.848262	21.564122	118.665644
0.848867	21.283459	117.671701
0.849473	20.860643	115.389917
0.850078	20.229455	111.808633
0.850684	19.335829	106.985056
0.851289	18.312199	100.958770
0.851895	16.981176	93.712695
0.852500	15.579077	85.507111
0.853105	13.950989	76.357741
0.853711	12.164344	66.146648
0.854316	10.300548	55.359416
0.854922	8.290345	44.162243
0.855527	6.166541	32.132989
0.856133	4.060962	19.749374
0.856738	1.978467	7.261106
0.857344	-0.257724	-5.348897
0.857949	-2.363303	-17.919858
0.858555	-4.529025	-30.284764
0.859160	-6.517358	-42.385053
0.859766	-8.551860	-53.910016
0.860371	-10.453929	-64.933398
0.860977	-12.136691	-75.208205
0.861582	-13.671225	-84.678044
0.862187	-15.130429	-92.895829
0.862793	-16.311400	-100.391067
0.863398	-17.342320	-106.837867
0.864004	-18.177019	-111.754982
0.864609	-18.800310	-115.461526
0.865215	-19.195182	-117.988135
0.865820	-19.317288	-119.119809
0.866426	-19.197004	-118.872273
0.867031	-18.974053	-117.276433
0.867637	-18.296088	-114.322803
0.868242	-17.513634	-110.070485
0.868848	-16.574446	-104.620610
0.869453	-15.370997	-97.860662
0.870059	-14.008992	-90.128732
0.870664	-12.436187	-81.468742
0.871270	-10.795949	-71.489190
0.871875	-8.974070	-60.867072
0.872480	-6.996064	-49.721413
0.873086	-4.928149	-37.934544
0.873691	-2.845655	-25.655584
0.874297	-0.741898	-13.137221
0.874902	1.434151	-0.499834
0.875508	3.564030	12.121556
0.876113	5.710919	24.678419
0.876719	7.757572	36.941654
0.877324	9.743475	48.646101
0.877930	11.648581	59.845172
0.878535	13.455880	70.528835
0.879141	15.110698	80.303417
0.879746	16.613641	88.952833
0.880352	17.908822	96.856927
0.880957	19.002921	103.750811
0.881563	19.911127	109.206379
0.882168	20.646804	113.536238
0.882773	21.141305	116.553855
0.883379	21.438371	118.277665
0.883984	21.418931	118.641785
0.884590	21.237897	117.635913
0.885195	20.864288	115.303428
0.885801	20.261652	111.809446
0.886406	19.380783	106.946285
0.887012	18.338929	100.701202
0.887617	17.076553	93.656301
0.888223	15.596694	85.574621
0.888828	14.045758	76.180968
0.889434	12.330798	66.120620
0.890039	10.451207	55.329863
0.890645	8.494464	43.936667
0.891250	6.450241	32.011254
0.891855	4.341625	19.680509
0.892461	2.213568	7.112801
0.893066	0.018686	-5.451111
0.893672	-2.140960	-18.052980
0.894277	-4.265979	-30.535555
0.894883	-6.282257	-42.528478
0.895488	-8.265122	-53.917878
0.896094	-10.117984	-65.131861
0.896699	-11.792241	-75.395281
0.897305	-13.419722	-84.635748
0.897910	-14.815139	-93.067993
0.898516	-16.071440	-100.479996
0.899121	-17.115724	-106.743787
0.899727	-17.949208	-111.778570
0.900332	-18.489879	-115.529849
0.900937	-18.881714	-117.981357
0.901543	-19.023260	-119.079683
0.902148	-18.991671	-118.863597
0.902754	-18.680633	-117.129213
0.903359	-18.115055	-114.352897
0.903965	-17.388490	-110.141791
0.904570	-16.466312	-104.404795
0.905176	-15.251928	-97.700427
0.905781	-13.908148	-90.067186
0.906387	-12.344455	-81.227442
0.906992	-10.602158	-71.373691
0.907598	-8.861075	-60.822879
0.908203	-6.979054	-49.597780
0.908809	-4.908102	-37.810640
0.909414	-2.978696	-25.597021
0.910020	-0.794750	-13.077031
0.910625	1.337559	-0.449676
0.911230	3.542160	12.118303
0.911836	5.618580	24.754876
0.912441	7.668877	37.006995
0.913047	9.651743	48.609499
0.913652	11.572036	59.917833
0.914258	13.282744	70.570046
0.914863	14.895644	80.308568
0.915469	16.317184	89.082972
0.916074	17.616009	96.925250
0.916680	18.710108	103.619858
0.917285	19.727663	109.205566
0.917891	20.372824	113.506957
0.918496	20.879475	116.460588
0.919102	21.152240	118.149694
0.919707	21.164998	118.557736
0.920312	20.972422	117.397594
0.920918	20.579980	115.232394
0.921523	19.875892	111.782062
0.922129	19.056381	106.815603
0.922734	18.066163	100.728043
0.923340	16.799535	93.511250
0.923945	15.433885	85.299429
0.924551	13.780282	76.039983
0.925156	12.099342	65.967435
0.925762	10.281108	55.168815
0.926367	8.255718	43.708380
0.926973	6.175654	31.781340
0.927578	4.169096	19.388237
0.928184	1.986972	6.898613
0.928789	-0.108280	-5.531092
0.929395	-2.284329	-18.314886
0.930000	-4.324906	-30.685486
0.930605	-6.363054	-42.588126
0.931211	-8.335592	-54.103328
0.931816	-10.159293	-65.079263
0.932422	-11.892478	-75.341056
0.933027	-13.422152	-84.722508
0.933633	-14.747707	-93.109204
0.934238	-16.026485	-100.537475
0.934844	-17.028245	-106.758970
0.935449	-17.729295	-111.763387
0.936055	-18.401185	-115.498941
0.936660	-18.778440	-118.043174
0.937266	-18.847087	-119.198164
0.937871	-18.795450	-118.659169
0.938477	-18.456467	-117.119995
0.939082	-17.875094	-114.265866
0.939688	-17.075630	-109.906184
0.940293	-16.055037	-104.359789
0.940898	-14.882571	-97.601738
0.941504	-13.554586	-89.840797
0.942109	-11.995752	-80.992919
0.942715	-10.318457	-71.211829
0.943320	-8.499616	-60.649088
0.943926	-6.596940	-49.421820
0.944531	-4.628654	-37.658810
0.945137	-2.531580	-25.270316
0.945742	-0.468525	-12.916525
0.946348	1.750656	-0.334177
0.946953	3.916378	12.495166
0.947559	5.961208	25.008649
0.948164	7.958045	37.133339
0.948770	9.912966	48.937831
0.949375	11.781015	60.188415
0.949980	13.500834	70.694221
0.950586	15.148970	80.356286
0.951191	16.684111	89.267608
0.951797	17.851110	97.081418
0.952402	19.024184	103.824557
0.953008	19.882575	109.176555
0.953613	20.572690	113.431042
0.954219	20.963309	116.658238
0.954824	21.132193	118.259228
0.955430	21.211167	118.476670
0.956035	21.028311	117.503333
0.956641	20.604279	115.276045
0.957246	19.913557	111.593631
0.957852	19.054558	106.647777
0.958457	18.034573	100.620407
0.959063	16.693831	93.390599
0.959668	15.196354	85.090121
0.960273	13.653316	75.818746
0.960879	11.884896	65.668927
0.961484	10.010165	55.012376
0.962090	8.035197	43.454879
0.962695	6.044434	31.361910
0.963301	3.929743	19.215801
0.963906	1.760376	6.824867
0.964512	-0.427823	-5.841530
0.965117	-2.613592	-18.475934
0.965723	-4.588559	-30.831080
0.966328	-6.710541	-42.843796
0.966934	-8.648452	-54.368487
0.967539	-10.456359	-65.344423
0.968145	-12.139729	-75.576935
0.968750	-13.663327	-84.868373
0.969355	-15.120709	-93.289502
0.969961	-16.270091	-100.811581
0.970566	-17.348395	-106.886127
0.971172	-18.146037	-111.806767
0.971777	-18.765682	-115.703369
0.972383	-19.057888	-118.078149
0.972988	-19.083402	-119.100559
0.973594	-18.998353	-118.779819
0.974199	-18.591939	-117.084477
0.974805	-18.022715	-114.138709
0.975410	-17.247551	-109.840029
0.976016	-16.299250	-104.296888
0.976621	-15.033230	-97.561340
0.977227	-13.690665	-89.846762
0.977832	-12.123934	-80.918088
0.978437	-10.423554	-71.034785
0.979043	-8.557935	-60.624144
0.979648	-6.613950	-49.334247
0.980254	-4.583700	-37.312313
0.980859	-2.520037	-25.135838
0.981465	-0.385906	-12.620186
0.982070	1.737291	0.023436
0.982676	3.887825	12.675193
0.983281	6.030462	25.123605
0.983887	8.115994	37.415308
0.984492	10.076990	49.141716
0.985098	11.985741	60.337805
0.985703	13.757805	70.898377
0.986309	15.396220	80.505947
0.986914	16.831125	89.352199
0.987520	18.076491	97.260089
0.988125	19.143253	103.838926
0.988730	20.049636	109.287717
0.989336	20.785921	113.613509
0.989941	21.268880	116.622178
0.990547	21.526458	118.301252
0.991152	21.490008	118.585391
0.991758	21.298039	117.596871
0.992363	20.847278	115.171119
0.992969	20.174780	111.556758
0.993574	19.309707	106.607108
0.994180	18.151820	100.501383
0.994785	16.925287	93.358607
0.995391	15.484915	84.946154
0.995996	13.862294	75.635195
0.996602	12.135792	65.777919
0.997207	10.273818	54.895251
0.997812	8.219876	43.334771
0.998418	6.141634	31.393361
0.999023	3.975912	19.071834
0.999629	1.917717	6.556996
1.000234	-0.266229	-6.039451
1.000840	-2.441063	-18.643218
1.001445	-4.523557	-30.960678
1.002051	-6.582360	-42.961735
1.002656	-8.536673	-54.584574
1.003262	-10.348832	-65.566745
1.003867	-12.124541	-75.593202
1.004473	-13.747162	-85.034573
1.005078	-15.054492	-93.595873
1.005684	-16.291353	-100.808328
1.006289	-17.305263	-106.945232
1.006895	-18.000238	-111.937991
1.007500	-18.609556	-115.703640
1.008105	-18.952183	-118.047512
1.008711	-19.101020	-119.132823
1.009316	-19.034195	-118.881491
1.009922	-18.649651	-117.202959
1.010527	-18.144822	-114.253124
1.011133	-17.320450	-109.797734
1.011738	-16.321120	-104.277638
1.012344	-15.072110	-97.705307
1.012949	-13.659682	-89.632845
1.013555	-12.098419	-80.715287
1.014160	-10.495846	-71.019060
1.014766	-8.613217	-60.412125
1.015371	-6.771291	-49.178350
1.015977	-4.692441	-37.320175
1.016582	-2.604479	-25.072666
1.017187	-0.502545	-12.528817
1.017793	1.716636	0.122126
1.018398	3.895723	12.754903
1.019004	6.003125	25.278689
1.019609	7.973233	37.360812
1.020215	9.990725	49.240948
1.020820	11.862419	60.468216
1.021426	13.572519	70.760646
1.022031	15.227944	80.544989
1.022637	16.662849	89.388530
1.023242	17.975039	97.221047
1.023848	19.150543	103.876884
1.024453	19.999214	109.348720
1.025059	20.739751	113.621100
1.025664	21.138268	116.566326
1.026270	21.374584	118.235640
1.026875	21.364864	118.442508
1.027480	21.165605	117.470798
1.028086	20.760406	115.172746
1.028691	20.058141	111.309763
1.029297	19.249564	106.395631
1.029902	18.106258	100.526327
1.030508	16.774628	93.235516
1.031113	15.349443	84.833908
1.031719	13.683691	75.569311
1.032324	11.941393	65.479953
1.032930	10.070307	54.620330
1.033535	8.053422	43.159895
1.034141	6.034107	31.187306
1.034746	3.938248	18.896417
1.035352	1.779208	6.395948
1.035957	-0.428430	-6.305695
1.036563	-2.586862	-18.915698
1.037168	-4.745901	-31.083768
1.037773	-6.803488	-43.248043
1.038379	-8.772989	-54.837533
1.038984	-10.554165	-65.641033
1.039590	-12.219918	-75.828809
1.040195	-13.784827	-85.152512
1.040801	-15.141364	-93.512637
1.041406	-16.355140	-100.808328
1.042012	-17.346573	-107.030094
1.042617	-18.206179	-112.054575
1.043223	-18.774795	-115.728855
1.043828	-19.102842	-118.183345
1.044434	-19.206117	-119.117640
1.045039	-19.059710	-118.829977
1.045645	-18.700073	-117.248237
1.046250	-18.100475	-113.981728
1.046855	-17.362975	-109.654851
1.047461	-16.338738	-104.179220
1.048066	-15.156551	-97.421982
1.048672	-13.721040	-89.493487
1.049277	-12.162814	-80.619309
1.049883	-10.523791	-70.887835
1.050488	-8.575553	-60.202546
1.051094	-6.616380	-48.948979
1.051699	-4.635337	-37.075079
1.052305	-2.474475	-24.881523
1.052910	-0.322726	-12.391357
1.053516	1.761591	0.381321
1.054121	3.955865	12.997289
1.054727	6.063267	25.306614
1.055332	8.092909	37.655525
1.055937	10.081242	49.491738
1.056543	12.072612	60.638482
1.057148	13.883557	71.161097
1.057754	15.434493	80.825603
1.058359	16.986036	89.673482
1.058965	18.153643	97.345493
1.059570	19.327931	104.010548
1.060176	20.187538	109.457169
1.060781	20.932327	113.736599
1.061387	21.384304	116.706498
1.061992	21.645527	118.141560
1.062598	21.688659	118.574546
1.063203	21.505803	117.692036
1.063809	21.016161	115.171119
1.064414	20.336981	111.444512
1.065020	19.400223	106.536073
1.065625	18.362621	100.409201
1.066230	17.049216	93.128693
1.066836	15.594264	84.810321
1.067441	13.963139	75.525660
1.068047	12.220234	65.440640
1.068652	10.281108	54.555260
1.069258	8.300065	42.987731
1.069863	6.201776	31.018395
1.070469	4.067037	18.850868
1.071074	1.903138	6.148682
1.071680	-0.276556	-6.528017
1.072285	-2.478120	-18.931152
1.072891	-4.590382	-31.271658
1.073496	-6.640679	-43.363271
1.074102	-8.543355	-54.827501
1.074707	-10.447246	-65.746772
1.075312	-12.097812	-75.946749
1.075918	-13.695525	-85.304070
1.076523	-15.158374	-93.663654
1.077129	-16.362430	-100.997302
1.077734	-17.303441	-107.100316
1.078340	-18.184309	-112.172785
1.078945	-18.676380	-115.915388
1.079551	-19.043915	-118.003318
1.080156	-19.159947	-119.085105
1.080762	-19.099805	-118.863868
1.081367	-18.776617	-117.134364
1.081973	-18.248704	-114.079062
1.082578	-17.409145	-109.708263
1.083184	-16.449302	-104.180575
1.083789	-15.210619	-97.419542
1.084395	-13.812771	-89.492131
1.085000	-12.275808	-80.576200
1.085605	-10.566315	-70.814090
1.086211	-8.793643	-60.290119
1.086816	-6.852695	-48.872793
1.087422	-4.824268	-37.030886
1.088027	-2.779438	-24.981026
1.088633	-0.610071	-12.253897
1.089238	1.603642	0.475943
1.089844	3.738382	13.109534
1.090449	5.885878	25.554151
1.091055	7.876033	37.777531
1.091660	9.848571	49.542710
1.092266	11.745172	60.717379
1.092871	13.529994	71.185769
1.093477	15.139250	80.869525
1.094082	16.610604	89.711981
1.094688	17.860222	97.426288
1.095293	19.067316	103.893422
1.095898	19.939072	109.474792
1.096504	20.620682	113.890327
1.097109	21.098781	116.647935
1.097715	21.291964	118.233471
1.098320	21.394631	118.538757
1.098926	21.068406	117.436365
1.099531	20.665637	115.059958
1.100137	20.050851	111.345552
1.100742	19.205217	106.430606
1.101348	18.094108	100.279332
1.101953	16.866967	93.047627
1.102559	15.374958	84.579051
1.103164	13.783927	75.299813
1.103770	11.954758	65.402683
1.104375	10.081242	54.280069
1.104980	8.140902	42.830750
1.105586	6.049294	30.982336
1.106191	3.975912	18.654573
1.106797	1.864258	6.111267
1.107402	-0.292959	-6.543200
1.108008	-2.430128	-19.050718
1.108613	-4.512015	-31.422403
1.109219	-6.581145	-43.418038
1.109824	-8.536673	-54.978789
1.110430	-10.370702	-65.924358
1.111035	-12.040707	-76.006938
1.111641	-13.549726	-85.475692
1.112246	-14.903226	-93.821719
1.112852	-16.127329	-100.879634
1.113457	-17.081705	-107.117125
1.114062	-17.907899	-112.131574
1.114668	-18.489272	-115.827544
1.115273	-18.823394	-118.103906
1.115879	-18.966156	-119.120623
1.116484	-18.803347	-118.763552
1.117090	-18.459505	-117.023203
1.117695	-17.890281	-113.937263
1.118301	-16.996655	-109.568091
1.118906	-16.039850	-104.047182
1.119512	-14.830326	-97.301332
1.120117	-13.467714	-89.286890
1.120723	-11.964163	-80.446061
1.121328	-10.305092	-70.757153
1.121934	-8.460128	-59.988086
1.122539	-6.508853	-48.639626
1.123145	-4.440938	-36.819137
1.123750	-2.369378	-24.535568
1.124355	-0.270481	-11.992804
1.124961	1.933512	0.665459
1.125566	4.018437	13.238047
1.126172	6.090604	25.747463
1.126777	8.110527	37.901706
1.127383	10.081242	49.644924
1.127988	11.982703	60.854568
1.128594	13.715888	71.151879
1.129199	15.295376	81.044672
1.129805	16.765515	89.860287
1.130410	18.023031	97.419239
1.131016	19.125028	104.052573
1.131621	19.993746	109.571855
1.132227	20.663207	113.750969
1.132832	21.134016	116.619467
1.133438	21.296217	118.205817
1.134043	21.288927	118.409160
1.134648	21.139483	117.392985
1.135254	20.634654	114.960456
1.135859	20.003466	111.159018
1.136465	19.094653	106.302906
1.137070	17.919757	100.170611
1.137676	16.703551	92.646362
1.138281	15.243132	84.448912
1.138887	13.606539	75.335331
1.139492	11.766435	65.056457
1.140098	9.963388	54.176499
1.140703	7.990243	42.758089
1.141309	5.869476	30.776010
1.141914	3.744456	18.418153
1.142520	1.559295	5.821435
1.143125	-0.611286	-6.726481
1.143730	-2.794625	-19.301509
1.144336	-4.855250	-31.654757
1.144941	-6.871528	-43.803306
1.145547	-8.769951	-55.248287
1.146152	-10.638607	-65.927612
1.146758	-12.283705	-76.249866
1.147363	-13.837679	-85.588480
1.147969	-15.252536	-93.883536
1.148574	-16.444442	-101.124459
1.149180	-17.443165	-107.292543
1.149785	-18.226834	-112.261171
1.150391	-18.688530	-115.827544
1.150996	-19.049383	-118.131560
1.151602	-19.081580	-119.126316
1.152207	-18.907836	-118.788766
1.152813	-18.643576	-117.038115
1.153418	-18.034865	-113.825560
1.154023	-17.248158	-109.632619
1.154629	-16.191724	-104.063449
1.155234	-15.012575	-96.978151
1.155840	-13.623840	-89.182236
1.156445	-11.981172	-80.289622
1.157051	-10.319672	-70.440751
1.157656	-8.536673	-59.765493
1.158262	-6.477263	-48.429504
1.158867	-4.452480	-36.632061
1.159473	-2.391856	-24.386721
1.160078	-0.277771	-11.833654
1.160684	1.837528	0.854704
1.161289	4.046989	13.377134
1.161895	6.206028	25.838561
1.162500	8.221091	38.276129
1.163105	10.213676	49.934485
1.163711	12.105417	60.963018
1.164316	13.872014	71.483735
1.164922	15.490382	81.184301
1.165527	16.924679	89.923459
1.166133	18.160325	97.613364
1.166738	19.357091	104.242089
1.167344	20.170528	109.652379
1.167949	20.853960	113.893580
1.168555	21.347246	116.730086
1.169160	21.563515	118.271158
1.169766	21.550757	118.594067
1.170371	21.281637	117.363975
1.170977	20.829053	114.843872
1.171582	20.167490	111.315457
1.172187	19.226480	106.364994
1.172793	18.189485	100.131840
1.173398	16.915567	92.817171
1.174004	15.461830	84.484700
1.174609	13.831919	75.191635
1.175215	12.000928	65.001147
1.175820	10.075775	54.074557
1.176426	8.072862	42.626322
1.177031	6.035930	30.649666
1.177637	3.916378	18.299400
1.178242	1.778601	5.652795
1.178848	-0.405953	-6.767149
1.179453	-2.586254	-19.337297
1.180059	-4.667534	-31.910156
1.180664	-6.689886	-43.858886
1.181270	-8.724996	-55.280822
1.181875	-10.537156	-66.168913
1.182480	-12.263050	-76.379463
1.183086	-13.834034	-85.680933
1.183691	-15.157766	-93.948063
1.184297	-16.341168	-101.245110
1.184902	-17.279141	-107.337007
1.185508	-18.067062	-112.329495
1.186113	-18.659371	-115.856825
1.186719	-18.990456	-118.203137
1.187324	-19.120460	-119.364364
1.187930	-19.001998	-118.767619
1.188535	-18.654511	-116.866493
1.189141	-18.046408	-113.876260
1.189746	-17.244514	-109.507902
1.190352	-16.132189	-103.821606
1.190957	-14.960938	-96.982761
1.191563	-13.572811	-89.107948
1.192168	-12.050427	-80.202862
1.192773	-10.334860	-70.419603
1.193379	-8.519663	-59.697169
1.193984	-6.610912	-48.389649
1.194590	-4.567297	-36.685473
1.195195	-2.391248	-24.269324
1.195801	-0.288706	-11.651187
1.196406	1.850893	0.769300
1.197012	4.042129	13.473925
1.197617	6.120979	26.074439
1.198223	8.074077	38.227869
1.198828	10.115262	49.955361
1.199434	11.981488	61.112950
1.200039	13.714673	71.607910
1.200645	15.375566	81.219547
1.201250	16.854210	89.975243
1.201855	18.122053	97.619871
1.202461	19.216152	104.331289
1.203066	20.075758	109.686270
1.203672	20.712414	113.690237
1.204277	21.151633	116.682368
1.204883	21.350891	118.434375
1.205488	21.326592	118.479923
1.206094	21.199625	117.295923
1.206699	20.689936	114.961811
1.207305	20.018046	111.235746
1.207910	19.097083	106.222111
1.208516	17.960459	99.988144
1.209121	16.664671	92.670221
1.209727	15.145325	84.314976
1.210332	13.525134	75.030044
1.210937	11.758537	64.742766
1.211543	9.861329	53.868773
1.212148	7.896081	42.587009
1.212754	5.834241	30.452016
1.213359	3.760251	17.946938
1.213965	1.593922	5.582574
1.214570	-0.659278	-6.997063
1.215176	-2.787943	-19.582665
1.215781	-4.843708	-31.949198
1.216387	-6.956577	-43.935343
1.216992	-8.872010	-55.411504
1.217598	-10.655010	-66.305017
1.218203	-12.345062	-76.507163
1.218809	-13.943383	-85.813242
1.219414	-15.303565	-94.021267
1.220020	-16.495472	-101.306926
1.220625	-17.394565	-107.573157
1.221230	-18.234124	-112.266323
1.221836	-18.777225	-115.803414
1.222441	-19.049990	-118.278239
1.223047	-19.115600	-119.128214
1.223652	-19.000783	-118.688450
1.224258	-18.602266	-116.853208
1.224863	-17.919441	-113.763744
1.225469	-17.210494	-109.379931
1.226074	-16.177751	-103.734033
1.226680	-15.024725	-96.867261
1.227285	-13.568558	-88.944731
1.227891	-11.942293	-80.163278
1.228496	-10.230370	-70.113233
1.229102	-8.398164	-59.388359
1.229707	-6.385531	-48.290146
1.230312	-4.280559	-36.364732
1.230918	-2.249094	-24.030463
1.231523	-0.109495	-11.455164
1.232129	2.028889	1.188730
1.232734	4.171526	13.781381
1.233340	6.336640	26.298930
1.233945	8.347450	38.463476
1.234551	10.422655	50.196120
1.235156	12.262759	61.329036
1.235762	14.025103	71.801493
1.236367	15.649546	81.439971
1.236973	17.057721	90.031095
1.237578	18.379631	97.798271
1.238184	19.417841	104.539783
1.238789	20.344271	109.785772
1.239395	21.004012	113.968682
