LabVIEW Measurement	
Writer_Version	2
Reader_Version	2
Separator	Tab
Decimal_Separator	.
Multi_Headings	No
X_Columns	One
Time_Pref	Absolute
Operator	AlunosGDS-JT
Date	2019/10/09
Time	15:19:08.4651639249999940857
***End_of_Header***	
	
Channels	2		
Samples	2048	2048	
Date	2019/10/09	2019/10/09	
Time	15:23:39.62858189374999216	15:23:39.62858189374999216	
Y_Unit_Label	g	Newtons	
X_Dimension	Time	Time	
X0	0.0000000000000000E+0	0.0000000000000000E+0	
Delta_X	0.000605	0.000605	
***End_of_Header***			
X_Value	Acceleration (Trigger)	Force (Trigger)	Comment
0.000000	-25.111580	-6.685270
0.000605	-25.813238	-14.182135
0.001211	-26.324749	-21.718855
0.001816	-26.837475	-29.243375
0.002422	-27.216552	-36.641551
0.003027	-27.443148	-43.772126
0.003633	-27.483850	-50.745179
0.004238	-27.531843	-57.559623
0.004844	-27.443148	-64.100774
0.005449	-27.257255	-70.242288
0.006055	-26.946217	-76.215975
0.006660	-26.545270	-82.001231
0.007266	-26.143715	-87.143922
0.007871	-25.566595	-91.981597
0.008477	-24.919004	-96.770470
0.009082	-24.144448	-100.726720
0.009687	-23.344983	-104.328609
0.010293	-22.359018	-107.626297
0.010898	-21.340856	-110.457380
0.011504	-20.199979	-112.750551
0.012109	-19.040878	-114.595283
0.012715	-17.849579	-116.018144
0.013320	-16.602391	-117.038928
0.013926	-15.234918	-117.435584
0.014531	-13.804266	-117.398711
0.015137	-12.380297	-116.976841
0.015742	-10.823286	-115.817783
0.016348	-9.137486	-114.265053
0.016953	-7.489351	-112.495694
0.017559	-5.802336	-109.939532
0.018164	-4.146910	-106.960144
0.018770	-2.479335	-103.663812
0.019375	-0.691476	-99.895723
0.019980	1.089094	-95.739926
0.020586	2.892748	-91.156565
0.021191	4.722524	-86.255446
0.021797	6.499449	-80.898567
0.022402	8.278195	-75.224744
0.023008	9.990725	-69.307179
0.023613	11.771902	-63.146687
0.024219	13.362933	-56.501967
0.024824	14.943636	-49.757201
0.025430	16.606959	-43.037108
0.026035	18.091071	-35.731928
0.026641	19.505320	-28.445726
0.027246	20.878260	-21.075748
0.027852	22.146711	-13.664016
0.028457	23.412731	-6.127566
0.029062	24.470381	1.335679
0.029668	25.538358	8.878907
0.030273	26.381562	16.378212
0.030879	27.243598	23.834137
0.031484	27.992032	31.141215
0.032090	28.576443	38.217295
0.032695	29.099497	45.570464
0.033301	29.485256	52.401989
0.033906	29.715497	58.910063
0.034512	29.870409	65.514115
0.035117	29.765312	71.704160
0.035723	29.658393	77.632027
0.036328	29.363757	83.196858
0.036934	28.912996	88.466435
0.037539	28.332837	93.423677
0.038145	27.660340	97.972333
0.038750	26.801341	102.135722
0.039355	25.933838	105.803766
0.039961	24.786279	109.010627
0.040566	23.548810	111.753052
0.041172	22.137598	114.194800
0.041777	20.675356	116.048207
0.042383	19.112270	117.223803
0.042988	17.467780	118.190905
0.043594	15.756465	118.571021
0.044199	13.946129	118.421632
0.044805	12.224486	117.780422
0.045410	10.312698	116.643326
0.046016	8.381470	115.049927
0.046621	6.406502	112.898011
0.047227	4.403589	110.256445
0.047832	2.366049	107.223645
0.048438	0.354632	103.739424
0.049043	-1.647674	99.578204
0.049648	-3.513900	95.410206
0.050254	-5.530785	90.600457
0.050859	-7.366636	85.227852
0.051465	-9.228610	79.727820
0.052070	-11.051097	73.814051
0.052676	-12.780029	67.522334
0.053281	-14.411154	60.969525
0.053887	-16.003400	54.266513
0.054492	-17.494194	47.292647
0.055098	-18.794842	40.101610
0.055703	-20.030488	32.768233
0.056309	-21.197487	25.325864
0.056914	-22.341401	17.743595
0.057520	-23.389331	9.869325
0.058125	-24.247722	2.429396
0.058730	-25.172330	-5.321784
0.059336	-25.868520	-13.086792
0.059941	-26.390966	-20.622699
0.060547	-26.753641	-28.135018
0.061152	-27.079866	-35.486831
0.061758	-27.336229	-42.713114
0.062363	-27.488103	-49.710025
0.062969	-27.517870	-56.558360
0.063574	-27.483243	-63.186814
0.064180	-27.377539	-69.522723
0.064785	-27.074398	-75.457098
0.065391	-26.712331	-81.133361
0.065996	-26.189277	-86.550159
0.066602	-25.525285	-91.253356
0.067207	-24.949379	-95.858407
0.067812	-24.112858	-100.144344
0.068418	-23.378396	-103.885049
0.069023	-22.514537	-107.228829
0.069629	-21.496982	-110.140164
0.070234	-20.489755	-112.595197
0.070840	-19.334298	-114.516386
0.071445	-18.123560	-116.004588
0.072051	-16.764592	-116.976299
0.072656	-15.369782	-117.468932
0.073262	-13.942775	-117.419316
0.073867	-12.541283	-116.983348
0.074473	-11.072359	-116.234502
0.075078	-9.546330	-114.550005
0.075684	-7.947402	-112.638848
0.076289	-6.257957	-110.461989
0.076895	-4.498043	-107.544418
0.077500	-2.732661	-104.232089
0.078105	-0.992186	-100.502771
0.078711	0.853993	-96.417466
0.079316	2.636385	-91.934692
0.079922	4.356812	-87.075056
0.080527	6.124016	-81.855908
0.081133	7.845659	-76.359942
0.081738	9.627443	-70.369988
0.082344	11.333898	-64.144697
0.082949	13.234144	-57.757273
0.083555	14.850082	-50.857153
0.084160	16.424103	-43.845872
0.084766	17.999339	-36.896950
0.085371	19.347979	-29.650062
0.085977	20.669281	-22.294724
0.086582	21.937125	-14.875671
0.087188	23.178238	-7.417035
0.087793	24.331872	0.164692
0.088398	25.387092	7.762958
0.089004	26.429554	15.253316
0.089609	27.337760	22.659083
0.090215	27.976238	30.095759
0.090820	28.614108	37.394703
0.091426	29.009587	44.234362
0.092031	29.366795	51.327794
0.092637	29.538108	58.121633
0.093242	29.720965	64.474352
0.093848	29.728255	70.712657
0.094453	29.663860	76.724844
0.095059	29.479789	82.415477
0.095664	29.066084	87.714336
0.096270	28.548498	92.676728
0.096875	27.793989	97.259818
0.097480	26.954430	101.422122
0.098086	26.032859	105.090708
0.098691	24.944835	108.474343
0.099297	23.763256	111.395439
0.099902	22.471113	113.642519
0.100508	21.155885	115.740210
0.101113	19.652334	117.289144
0.101719	17.985366	118.129359
0.102324	16.340876	118.632295
0.102930	14.429695	118.515170
0.103535	12.459587	117.895379
0.104141	10.624951	116.823352
0.104746	8.650590	115.289872
0.105352	6.743662	113.285448
0.105957	4.716449	110.728744
0.106563	2.780969	107.675068
0.107168	0.792028	104.281402
0.107773	-1.382198	100.429264
0.108379	-3.287912	95.845361
0.108984	-5.300544	91.230821
0.109590	-7.253035	86.131239
0.110195	-9.129588	80.535229
0.110801	-10.922308	74.663213
0.111406	-12.659137	68.438464
0.112012	-14.284188	62.054837
0.112617	-15.809609	55.307902
0.113223	-17.311946	48.362776
0.113828	-18.759607	41.205901
0.114434	-20.097920	33.896111
0.115039	-21.339641	26.249043
0.115645	-22.409440	18.815350
0.116250	-23.459800	11.232539
0.116855	-24.369221	3.252801
0.117461	-25.071486	-4.324046
0.118066	-25.771321	-11.847752
0.118672	-26.349656	-19.423244
0.119277	-26.839298	-27.018527
0.119883	-27.215337	-34.411280
0.120488	-27.476560	-41.618855
0.121094	-27.707409	-48.750244
0.121699	-27.769981	-55.568756
0.122305	-27.676426	-62.144069
0.122910	-27.494178	-68.404606
0.123516	-27.242675	-74.616340
0.124121	-26.844765	-80.164091
0.124727	-26.405546	-85.491146
0.125332	-25.985159	-90.775093
0.125938	-25.267707	-95.286063
0.126543	-24.615864	-99.467346
0.127148	-23.725883	-103.321924
0.127754	-22.841977	-106.726164
0.128359	-21.806197	-109.600897
0.128965	-20.751585	-112.077078
0.129570	-19.595521	-114.129220
0.130176	-18.376278	-115.677070
0.130781	-17.172829	-116.764821
0.131387	-15.758579	-117.283483
0.131992	-14.392930	-117.612357
0.132598	-12.808581	-117.079055
0.133203	-11.430781	-116.166450
0.133809	-9.758346	-115.027998
0.134414	-8.052499	-113.127414
0.135020	-6.363661	-110.730944
0.135625	-4.623187	-107.942700
0.136230	-2.859627	-104.758071
0.136836	-1.155602	-101.130966
0.137441	0.639547	-97.095277
0.138047	2.513671	-92.662662
0.138652	4.313680	-87.830680
0.139258	6.162289	-82.572219
0.139863	7.893651	-77.026638
0.140469	9.700950	-71.302385
0.141074	11.505819	-65.023682
0.141680	13.067690	-58.483345
0.142285	14.783257	-51.997503
0.142891	16.379148	-45.017673
0.143496	17.906999	-37.939153
0.144102	19.391111	-30.746489
0.144707	20.722134	-23.438598
0.145313	22.073204	-15.945800
0.145918	23.315532	-8.505871
0.146523	24.480101	-1.031238
0.147129	25.517096	6.573534
0.147734	26.360299	14.077991
0.148340	27.248458	21.529036
0.148945	28.013295	28.701365
0.149551	28.668175	36.233476
0.150156	29.125619	43.403907
0.150762	29.561801	50.071674
0.151367	29.846716	56.987519
0.151973	29.972468	63.568796
0.152578	29.997375	69.835298
0.153184	29.886811	75.775908
0.153789	29.625588	81.469795
0.154395	29.159031	86.809593
0.155000	28.618968	91.837327
0.155605	27.975023	96.435057
0.156211	27.097799	100.761392
0.156816	26.156788	104.628441
0.157422	25.091241	107.862957
0.158027	23.969805	111.030776
0.158633	22.565275	113.567418
0.159238	21.115183	115.385579
0.159844	19.648689	116.896014
0.160449	17.937982	117.958551
0.161055	16.215732	118.416751
0.161660	14.375020	118.433290
0.162266	12.526412	117.903513
0.162871	10.685093	116.963795
0.163477	8.717415	115.432755
0.164082	6.827496	113.433211
0.164687	4.813649	111.090153
0.165293	2.796763	108.184240
0.165898	0.764083	104.603498
0.166504	-1.233362	100.893429
0.167109	-3.289734	96.734379
0.167715	-5.214280	91.871760
0.168320	-7.143078	86.770551
0.168926	-9.009912	81.385475
0.169531	-10.817211	75.530540
0.170137	-12.530956	69.331820
0.170742	-14.190634	62.872006
0.171348	-15.793814	56.198546
0.171953	-17.288253	49.294902
0.172559	-18.728018	42.098172
0.173164	-19.983711	34.849928
0.173770	-21.153747	27.530920
0.174375	-22.329858	19.770251
0.174980	-23.314001	12.261999
0.175586	-24.113465	4.803904
0.176191	-24.993119	-3.048947
0.176797	-25.655896	-10.697642
0.177402	-26.240915	-18.304855
0.178008	-26.776118	-25.870585
0.178613	-27.170990	-33.312412
0.179219	-27.393941	-40.570145
0.179824	-27.573152	-47.631313
0.180430	-27.636939	-54.556919
0.181035	-27.554320	-61.259118
0.181641	-27.427961	-67.609940
0.182246	-27.207440	-73.610468
0.182852	-26.867850	-79.622926
0.183457	-26.458398	-85.038910
0.184062	-25.862445	-89.879839
0.184668	-25.256164	-94.663832
0.185273	-24.453055	-98.946516
0.185879	-23.674854	-102.783199
0.186484	-22.800667	-106.218890
0.187090	-21.798907	-109.281241
0.187695	-20.737613	-111.821679
0.188301	-19.702440	-113.944584
0.188906	-18.435812	-115.561028
0.189512	-17.237831	-116.810913
0.190117	-15.826011	-117.425281
0.190723	-14.504709	-117.564368
0.191328	-12.920968	-117.427179
0.191934	-11.386434	-116.413173
0.192539	-9.859798	-114.993294
0.193145	-8.221990	-113.363564
0.193750	-6.594510	-111.169082
0.194355	-4.880765	-108.390326
0.194961	-3.261182	-105.304386
0.195566	-1.475145	-101.707377
0.196172	0.301779	-97.762786
0.196777	2.125481	-93.382226
0.197383	3.951612	-88.599047
0.197988	5.762557	-83.547454
0.198594	7.503639	-77.972862
0.199199	9.265376	-72.132839
0.199805	11.052628	-66.246454
0.200410	12.709268	-59.692831
0.201016	14.343431	-52.958640
0.201621	15.966051	-46.174019
0.202227	17.549185	-39.156773
0.202832	19.056381	-31.948927
0.203437	20.435396	-24.568645
0.204043	21.753661	-17.200564
0.204648	23.014822	-9.713731
0.205254	24.200653	-2.181077
0.205859	25.160496	5.363234
0.206465	26.180481	12.801537
0.207070	27.045554	20.332563
0.207676	27.896048	27.832682
0.208281	28.641445	34.956208
0.208887	29.046037	42.220449
0.209492	29.476751	49.263994
0.210098	29.716105	55.949112
0.210703	29.875876	62.502463
0.211309	29.903821	68.817768
0.211914	29.847931	74.857609
0.212520	29.548436	80.525739
0.213125	29.245296	86.013300
0.213730	28.746542	91.085498
0.214336	28.086802	95.844005
0.214941	27.334115	100.038845
0.215547	26.419227	104.002686
0.216152	25.351857	107.549537
0.216758	24.141726	110.269730
0.217363	22.892715	112.971757
0.217969	21.431688	115.145634
0.218574	19.953044	116.656882
0.219180	18.386313	117.805094
0.219785	16.682896	118.377981
0.220391	14.904757	118.489413
0.220996	13.082878	118.080557
0.221602	11.212399	117.204282
0.222207	9.193084	115.768949
0.222812	7.197461	113.825528
0.223418	5.224923	111.382425
0.224023	3.249955	108.595807
0.224629	1.341812	105.494684
0.225234	-0.802040	101.395281
0.225840	-2.764858	97.308891
0.226445	-4.756228	92.739629
0.227051	-6.713579	87.644657
0.227656	-8.630835	82.245482
0.228262	-10.547483	76.457515
0.228867	-12.224171	70.375649
0.229473	-13.905718	63.926138
0.230078	-15.477917	57.259186
0.230684	-17.009413	50.434709
0.231289	-18.445532	43.367034
0.231895	-19.704263	35.906229
0.232500	-20.922291	28.615690
0.233105	-22.218687	21.099304
0.233711	-23.174885	13.259737
0.234316	-24.067296	5.648729
0.234922	-24.940267	-1.938150
0.235527	-25.620662	-9.623989
0.236133	-26.248205	-17.254247
0.236738	-26.706256	-24.799372
0.237344	-27.068931	-32.243097
0.237949	-27.435858	-39.577558
0.238555	-27.590770	-46.643335
0.239160	-27.662454	-53.570839
0.239766	-27.686146	-60.292288
0.240371	-27.568292	-66.849164
0.240977	-27.260900	-72.697863
0.241582	-27.042809	-78.626815
0.242187	-26.541017	-84.238551
0.242793	-26.022824	-89.217482
0.243398	-25.430516	-93.911190
0.244004	-24.725821	-98.316422
0.244609	-23.950656	-102.229563
0.245215	-23.055208	-105.759876
0.245820	-22.128777	-108.866421
0.246426	-21.067483	-111.505276
0.247031	-19.980673	-113.625741
0.247637	-18.777832	-115.302918
0.248242	-17.487512	-116.528943
0.248848	-16.137657	-117.416063
0.249453	-14.794484	-117.433957
0.250059	-13.346215	-117.259353
0.250664	-11.879721	-116.709783
0.251270	-10.282007	-115.417061
0.251875	-8.703127	-113.700572
0.252480	-6.951110	-111.487111
0.253086	-5.264702	-108.962670
0.253691	-3.518760	-105.853143
0.254297	-1.801978	-102.346418
0.254902	0.015042	-98.410231
0.255508	1.812013	-94.108840
0.256113	3.573143	-89.371210
0.256719	5.403527	-84.268917
0.257324	7.142786	-78.996900
0.257930	8.949478	-73.027550
0.258535	10.729440	-66.952734
0.259141	12.448045	-60.763773
0.259746	14.225577	-53.953938
0.260352	15.849412	-47.110754
0.260957	17.342029	-40.157494
0.261562	18.743521	-33.014175
0.262168	20.221557	-25.661277
0.262773	21.560477	-18.289943
0.263379	22.810703	-10.863299
0.263984	24.025087	-3.291875
0.264590	25.090634	4.326183
0.265195	26.090571	11.725172
0.265801	27.051629	19.103556
0.266406	27.765437	26.733814
0.267012	28.496254	33.856527
0.267617	29.060617	40.967040
0.268223	29.487079	48.101954
0.268828	29.799939	54.883321
0.269434	30.007095	61.478155
0.270039	30.127987	67.780174
0.270645	30.045975	73.972116
0.271250	29.883773	79.758728
0.271855	29.567876	85.238697
0.272461	29.081272	90.329332
0.273066	28.380830	95.193578
0.273672	27.628750	99.418240
0.274277	26.802556	103.417328
0.274883	25.751589	107.104622
0.275488	24.522626	109.978271
0.276094	23.316747	112.647221
0.276699	21.910395	114.853633
0.277305	20.425676	116.524573
0.277910	18.755671	117.627779
0.278516	17.008514	118.279834
0.279121	15.263786	118.489142
0.279727	13.389663	118.075948
0.280332	11.479697	117.225430
0.280938	9.589171	115.929726
0.281543	7.645185	114.212965
0.282148	5.636198	111.761457
0.282754	3.612630	108.946642
0.283359	1.523453	105.942853
0.283965	-0.448478	102.034321
0.284570	-2.450783	97.850056
0.285176	-4.433041	93.357522
0.285781	-6.454178	88.376964
0.286387	-8.309469	82.958811
0.286992	-10.196351	77.258146
0.287598	-12.023697	71.207731
0.288203	-13.721647	64.831152
0.288809	-15.299313	58.206766
0.289414	-16.882446	51.371987
0.290020	-18.274218	44.429572
0.290625	-19.659916	36.985034
0.291230	-20.871869	29.680125
0.291836	-22.127562	22.335360
0.292441	-23.170025	14.526160
0.293047	-24.113465	6.889937
0.293652	-24.985221	-0.763638
0.294258	-25.747628	-8.439988
0.294863	-26.456575	-16.124471
0.295469	-26.935889	-23.673663
0.296074	-27.359921	-31.152092
0.296680	-27.698904	-38.465677
0.297285	-27.842880	-45.632583
0.297891	-27.956482	-52.581777
0.298496	-27.951622	-59.187998
0.299102	-27.817973	-65.850883
0.299707	-27.635724	-71.981552
0.300312	-27.287022	-77.629076
0.300918	-26.876355	-83.303442
0.301523	-26.367881	-88.509305
0.302129	-25.767068	-93.246664
0.302734	-25.061158	-97.716152
0.303340	-24.265947	-101.713884
0.303945	-23.374751	-105.327432
0.304551	-22.399720	-108.437773
0.305156	-21.365156	-111.204870
0.305762	-20.172642	-113.475267
0.306367	-18.994708	-115.121264
0.306973	-17.749342	-116.408835
0.307578	-16.317475	-117.391390
0.308184	-14.934816	-117.497400
0.308789	-13.518136	-117.258539
0.309395	-11.971452	-116.714121
0.310000	-10.396824	-115.590039
0.310605	-8.763269	-113.941601
0.311211	-7.133966	-111.870210
0.311816	-5.391669	-109.317301
0.312422	-3.595912	-106.289111
0.313027	-1.830530	-102.878906
0.313633	0.042379	-98.990709
0.314238	1.836313	-94.782043
0.314844	3.673987	-90.056613
0.315449	5.474604	-85.017492
0.316055	7.193816	-79.868565
0.316660	8.964058	-73.974860
0.317266	10.773787	-67.813012
0.317871	12.476597	-61.691562
0.318477	14.235297	-54.991261
0.319082	15.812962	-48.161362
0.319688	17.489042	-41.212982
0.320293	18.880207	-34.142053
0.320898	20.245857	-26.836060
0.321504	21.617582	-19.396402
0.322109	22.921267	-11.955660
0.322715	24.043919	-4.570769
0.323320	25.196946	3.116425
0.323926	26.188378	10.633354
0.324531	27.139109	17.953174
0.325137	28.029697	25.537884
0.325742	28.566723	32.896746
0.326348	29.117722	39.945443
0.326953	29.568483	47.013389
0.327559	29.879521	53.849252
0.328164	30.036862	60.426734
0.328770	30.140137	66.879498
0.329375	30.084247	73.010438
0.329980	29.891063	78.859408
0.330586	29.570913	84.365676
0.331191	29.084917	89.495624
0.331797	28.444617	94.373155
0.332402	27.650620	98.851048
0.333008	26.710217	102.579011
0.333613	25.657427	106.365536
0.334219	24.530523	109.621200
0.334824	23.266932	112.153503
0.335430	21.941377	114.468093
0.336035	20.400161	116.202477
0.336641	18.776325	117.442330
0.337246	17.107535	118.190634
0.337852	15.348836	118.519779
0.338457	13.529994	118.194700
0.339062	11.592084	117.388376
0.339668	9.676043	116.063119
0.340273	7.671915	114.447759
0.340879	5.645917	112.096838
0.341484	3.701324	109.268196
0.342090	1.655887	106.370959
0.342695	-0.378616	102.754157
0.343301	-2.329284	98.534103
0.343906	-4.320654	94.060006
0.344512	-6.367306	89.145331
0.345117	-8.288815	83.793603
0.345723	-10.124059	78.167769
0.346328	-11.852383	72.171578
0.346934	-13.535146	65.879320
0.347539	-15.171739	59.216163
0.348145	-16.734217	52.437506
0.348750	-18.139354	45.532506
0.349355	-19.545707	38.146802
0.349961	-20.749763	30.712296
0.350566	-21.930126	23.470559
0.351172	-23.036376	15.777671
0.351777	-23.950656	8.030016
0.352383	-24.792038	0.365596
0.352988	-25.543510	-7.290149
0.353594	-26.181988	-14.904682
0.354199	-26.734808	-22.517046
0.354805	-27.092623	-29.924711
0.355410	-27.398194	-37.266493
0.356016	-27.639369	-44.490064
0.356621	-27.715306	-51.489416
0.357227	-27.774841	-58.134950
0.357832	-27.641192	-64.748762
0.358438	-27.482635	-71.022042
0.359043	-27.174635	-76.693154
0.359648	-26.702611	-82.320887
0.360254	-26.231802	-87.627337
0.360859	-25.588464	-92.507307
0.361465	-24.934799	-96.965409
0.362070	-24.158420	-101.055322
0.362676	-23.292131	-104.762951
0.363281	-22.376028	-108.007769
0.363887	-21.335388	-110.714406
0.364492	-20.218812	-113.038486
0.365098	-18.981343	-114.955607
0.365703	-17.703780	-116.073454
0.366309	-16.408600	-117.174762
0.366914	-14.929956	-117.644078
0.367520	-13.519351	-117.305173
0.368125	-12.068652	-116.748283
0.368730	-10.494631	-115.713129
0.369336	-8.953415	-114.261257
0.369941	-7.205650	-112.197457
0.370547	-5.444521	-109.721006
0.371152	-3.759328	-106.797469
0.371758	-1.990909	-103.407057
0.372363	-0.196367	-99.614024
0.372969	1.569015	-95.466361
0.373574	3.406689	-90.951595
0.374180	5.150201	-85.837372
0.374785	6.917406	-80.555053
0.375391	8.690685	-75.059087
0.375996	10.388027	-68.880972
0.376602	12.206869	-62.599016
0.377207	13.873229	-56.136762
0.377812	15.508607	-49.320148
0.378418	17.010944	-42.386680
0.379023	18.511457	-35.321174
0.379629	19.950007	-28.081335
0.380234	21.284067	-20.688853
0.380840	22.527610	-13.226421
0.381445	23.769939	-5.749619
0.382051	24.894413	1.674314
0.382656	25.901033	9.382927
0.383262	26.851763	16.873285
0.383867	27.650620	24.074353
0.384473	28.295173	31.598331
0.385078	28.874723	38.864740
0.385684	29.315765	45.889577
0.386289	29.555726	52.689381
0.386895	29.862511	59.392394
0.387500	29.977935	65.794187
0.388105	29.879521	72.030865
0.388711	29.693020	77.897187
0.389316	29.409927	83.470152
0.389922	28.908743	88.715599
0.390527	28.315220	93.482511
0.391133	27.549168	98.178930
0.391738	26.649467	102.229531
0.392344	25.622192	105.686369
0.392949	24.522018	109.070817
0.393555	23.206183	111.917896
0.394160	21.893992	114.149793
0.394766	20.409273	115.986391
0.395371	18.810953	117.265557
0.395977	17.094778	118.062663
0.396582	15.391968	118.378794
0.397187	13.523312	118.182229
0.397793	11.711760	117.553491
0.398398	9.772027	116.323399
0.399004	7.892436	114.603927
0.399609	5.898636	112.662675
0.400215	3.895723	109.888257
0.400820	1.937765	106.733994
0.401426	-0.119215	103.309962
0.402031	-2.108155	99.317382
0.402637	-4.112890	94.856570
0.403242	-5.954209	89.958163
0.403848	-7.855063	84.747149
0.404453	-9.735869	79.183402
0.405059	-11.450829	73.153591
0.405664	-13.205276	66.897663
0.406270	-14.778082	60.442730
0.406875	-16.337523	53.579483
0.407480	-17.751772	46.496896
0.408086	-19.024475	39.627142
0.408691	-20.306898	32.119161
0.409297	-21.452635	24.541772
0.409902	-22.525472	17.106181
0.410508	-23.476810	9.390247
0.411113	-24.350996	1.681905
0.411719	-25.136488	-6.063852
0.412324	-25.730011	-13.616569
0.412930	-26.335076	-21.278007
0.413535	-26.747566	-28.788699
0.414141	-27.046454	-36.137801
0.414746	-27.211085	-43.247229
0.415352	-27.333799	-50.347168
0.415957	-27.342304	-57.259217
0.416563	-27.242067	-63.553916
0.417168	-27.109633	-70.012103
0.417773	-26.728126	-76.005583
0.418379	-26.346619	-81.585326
0.418984	-25.860015	-86.845956
0.419590	-25.348504	-91.836545
0.420195	-24.628621	-96.324199
0.420801	-23.838270	-100.454782
0.421406	-23.001748	-104.179491
0.422012	-22.139105	-107.572886
0.422617	-21.153140	-110.418609
0.423223	-20.057825	-112.741875
0.423828	-18.923024	-114.806760
0.424434	-17.633918	-116.230977
0.425039	-16.352710	-116.934817
0.425645	-15.066642	-117.562199
0.426250	-13.639028	-117.622388
0.426855	-12.156131	-116.989584
0.427461	-10.669590	-116.050408
0.428066	-9.218283	-114.674451
0.428672	-7.524585	-112.721541
0.429277	-5.878272	-110.336187
0.429883	-4.237427	-107.465249
0.430488	-2.488447	-104.178948
0.431094	-0.781993	-100.469151
0.431699	0.991894	-96.232830
0.432305	2.753024	-91.886432
0.432910	4.577940	-86.920515
0.433516	6.264955	-81.461693
0.434121	7.937391	-76.088276
0.434727	9.757447	-70.169355
0.435332	11.408012	-63.865438
0.435937	13.186759	-57.287143
0.436543	14.735873	-50.584131
0.437148	16.310501	-43.601860
0.437754	17.795828	-36.511140
0.438359	19.219797	-29.253678
0.438965	20.506473	-21.938195
0.439570	21.798616	-14.545171
0.440176	23.019074	-6.972391
0.440781	24.072471	0.366138
0.441387	25.207880	8.073124
0.441992	26.079029	15.774146
0.442598	26.967795	23.025915
0.443203	27.657910	30.364714
0.443809	28.291528	37.668539
0.444414	28.734392	44.732960
0.445020	29.030242	51.607323
0.445625	29.340065	58.306811
0.446230	29.530211	64.780994
0.446836	29.533856	71.005200
0.447441	29.442732	76.967772
0.448047	29.289035	82.628310
0.448652	28.817011	87.924457
0.449258	28.340735	92.726344
0.449863	27.608703	97.404870
0.450469	26.797696	101.656645
0.451074	25.882200	105.263415
0.451680	24.842776	108.558663
0.452285	23.591942	111.429329
0.452891	22.361156	113.867824
0.453496	20.990647	115.724485
0.454102	19.447608	117.136230
0.454707	17.797043	118.090046
0.455313	16.134327	118.504867
0.455918	14.286934	118.311284
0.456523	12.513654	117.728095
0.457129	10.610371	116.769399
0.457734	8.653628	114.937952
0.458340	6.789831	113.004021
0.458945	4.739534	110.583150
0.459551	2.768819	107.414788
0.460156	0.835160	103.909690
0.460762	-1.215137	99.983806
0.461367	-3.120243	95.695971
0.461973	-5.120726	90.824134
0.462578	-7.064104	85.615018
0.463184	-8.837383	80.056423
0.463789	-10.736414	74.202843
0.464395	-12.415532	67.933088
0.465000	-14.082499	61.413085
0.465605	-15.595771	54.773516
0.466211	-17.093247	47.642126
0.466816	-18.569461	40.558997
0.467422	-19.754077	33.414594
0.468027	-20.992153	25.789487
0.468633	-22.176162	18.160042
0.469238	-23.186427	10.544425
0.469844	-24.100708	2.832287
0.470449	-24.830917	-4.874429
0.471055	-25.572062	-12.486251
0.471660	-26.171660	-20.097259
0.472266	-26.661909	-27.606054
0.472871	-27.020331	-35.086380
0.473477	-27.251787	-42.340047
0.474082	-27.537310	-49.231490
0.474687	-27.630257	-56.305401
0.475293	-27.530020	-62.818355
0.475898	-27.408521	-68.913778
0.476504	-27.167953	-74.964735
0.477109	-26.756678	-80.751618
0.477715	-26.313814	-86.118257
0.478320	-25.773143	-91.057604
0.478926	-25.238547	-95.741823
0.479531	-24.496795	-99.962962
0.480137	-23.745323	-103.782835
0.480742	-22.820715	-107.096791
0.481348	-21.867554	-110.022225
0.481953	-20.781960	-112.536634
0.482559	-19.613139	-114.407122
0.483164	-18.384175	-116.020042
0.483770	-17.116332	-117.213533
0.484375	-15.781057	-117.559759
0.484980	-14.383817	-117.600427
0.485586	-12.949520	-117.242001
0.486191	-11.480596	-116.382807
0.486797	-9.910220	-114.964826
0.487402	-8.181895	-113.121992
0.488008	-6.392214	-110.756159
0.488613	-4.748331	-107.931041
0.489219	-2.951359	-104.646909
0.489824	-1.237614	-101.002995
0.490430	0.545993	-97.069249
0.491035	2.353899	-92.422988
0.491641	4.080401	-87.692678
0.492246	5.908963	-82.539955
0.492852	7.744814	-76.731654
0.493457	9.527206	-70.872381
0.494063	11.308991	-64.704840
0.494668	13.005726	-58.251533
0.495273	14.705498	-51.479113
0.495879	16.260687	-44.639996
0.496484	17.805548	-37.565001
0.497090	19.171805	-30.413820
0.497695	20.567222	-23.006968
0.498301	21.934695	-15.602556
0.498906	23.178845	-8.218208
0.499512	24.357994	-0.513390
0.500117	25.391344	6.968563
0.500723	26.495771	14.366468
0.501328	27.252103	21.998895
0.501934	28.088624	29.342575
0.502539	28.720420	36.609526
0.503145	29.201556	43.683979
0.503750	29.610400	50.685500
0.504355	29.974898	57.440026
0.504961	30.083639	63.892519
0.505566	30.141352	70.173661
0.506172	30.045367	76.167683
0.506777	29.745872	81.765592
0.507383	29.357075	87.002905
0.507988	28.750794	92.220697
0.508594	28.084979	96.767998
0.509199	27.277618	100.872553
0.509805	26.363944	104.836122
0.510410	25.316015	108.194542
0.511016	24.150231	111.097744
0.511621	22.846545	113.583956
0.512227	21.312619	115.498909
0.512832	19.793273	116.896827
0.513437	18.146960	117.867995
0.514043	16.374896	118.350868
0.514648	14.582784	118.324569
0.515254	12.745110	117.666279
0.515859	10.898324	116.640886
0.516465	8.964665	115.380156
0.517070	7.049840	113.208178
0.517676	5.047534	110.626801
0.518281	2.997844	107.832862
0.518887	0.894088	104.392563
0.519492	-1.113078	100.528767
0.520098	-3.090476	96.170168
0.520703	-5.047826	91.470766
0.521309	-7.023401	86.320755
0.521914	-8.811868	80.880912
0.522520	-10.700572	74.935964
0.523125	-12.444084	68.803669
0.523730	-14.140211	62.210733
0.524336	-15.769514	55.417979
0.524941	-17.248766	48.797117
0.525547	-18.717083	41.483532
0.526152	-19.998291	34.212243
0.526758	-21.193842	26.881848
0.527363	-22.295231	19.307984
0.527969	-23.324329	11.652782
0.528574	-24.303611	3.952573
0.529180	-25.204527	-3.753600
0.529785	-25.900717	-11.470889
0.530391	-26.556205	-19.077289
0.530996	-27.072576	-26.619160
0.531602	-27.434036	-33.991579
0.532207	-27.645444	-41.354238
0.532813	-27.887835	-48.456345
0.533418	-27.876292	-55.057144
0.534023	-27.882975	-61.885145
0.534629	-27.732316	-68.343874
0.535234	-27.514225	-74.302107
0.535840	-27.199542	-80.011177
0.536445	-26.694714	-85.474608
0.537051	-26.191100	-90.525116
0.537656	-25.528322	-95.136673
0.538262	-24.790215	-99.376790
0.538867	-23.903272	-103.220794
0.539473	-22.939784	-106.723995
0.540078	-21.982371	-109.687115
0.540684	-21.015238	-112.240024
0.541289	-19.939971	-114.496593
0.541895	-18.692175	-115.855741
0.542500	-17.324095	-116.864053
0.543105	-15.965735	-117.678240
0.543711	-14.447604	-117.664413
0.544316	-12.970783	-117.282940
0.544922	-11.475736	-116.473634
0.545527	-9.865266	-115.149732
0.546133	-8.288207	-113.396912
0.546738	-6.609090	-111.156339
0.547344	-4.883802	-108.445093
0.547949	-3.156693	-105.327161
0.548555	-1.288644	-101.595403
0.549160	0.538095	-97.572728
0.549766	2.516101	-93.304956
0.550371	4.276623	-88.298370
0.550977	5.969105	-83.093050
0.551582	7.797059	-77.706618
0.552187	9.501084	-71.900486
0.552793	11.203894	-65.780933
0.553398	12.995398	-59.330338
0.554004	14.709750	-52.630579
0.554609	16.374288	-45.711480
0.555215	17.990834	-38.612897
0.555820	19.488918	-31.415083
0.556426	20.841203	-24.175515
0.557031	22.142458	-16.732603
0.557637	23.293055	-9.204288
0.558242	24.375004	-2.006744
0.558848	25.498871	5.786731
0.559453	26.492733	13.502665
0.560059	27.427062	20.847700
0.560664	28.215591	28.235031
0.561270	28.934258	35.526926
0.561875	29.377122	42.676480
0.562480	29.720357	49.594765
0.563086	29.973683	56.315672
0.563691	30.026535	62.823475
0.564297	30.070882	69.156402
0.564902	30.010132	75.092945
0.565508	29.802977	80.858680
0.566113	29.480396	86.393959
0.566719	28.937903	91.224043
0.567324	28.268443	95.989599
0.567930	27.401547	100.424655
0.568535	26.373664	104.172681
0.569141	25.257695	107.517002
0.569746	23.981347	110.507506
0.570352	22.754814	113.027609
0.570957	21.372761	115.070261
0.571562	19.897762	116.622178
0.572168	18.341359	117.776626
0.572773	16.676821	118.327280
0.573379	14.848867	118.297186
0.573984	12.890301	117.789911
0.574590	10.822994	116.941292
0.575195	8.838306	115.343826
0.575801	6.963575	113.410165
0.576406	4.957625	111.209447
0.577012	3.043407	108.289165
0.577617	1.002829	104.946199
0.578223	-0.996439	101.155878
0.578828	-3.016361	96.901662
0.579434	-5.115258	92.170268
0.580039	-7.094478	87.050352
0.580645	-8.994724	81.605899
0.581250	-10.825716	75.849925
0.581855	-12.551611	69.670183
0.582461	-14.135351	63.171328
0.583066	-15.716055	56.728053
0.583672	-17.209279	49.701860
0.584277	-18.560349	42.546340
0.584883	-19.936934	35.393532
0.585488	-21.184729	27.950350
0.586094	-22.329858	20.376214
0.586699	-23.381433	12.748667
0.587305	-24.270807	5.011857
0.587910	-25.055083	-2.662324
0.588516	-25.662579	-10.280924
0.589121	-26.229372	-17.883527
0.589727	-26.666161	-25.394762
0.590332	-27.147298	-32.939345
0.590938	-27.425531	-40.264317
0.591543	-27.568900	-47.092860
0.592148	-27.814935	-54.238890
0.592754	-27.702549	-60.928346
0.593359	-27.521515	-67.211929
0.593965	-27.207440	-73.300844
0.594570	-26.862382	-79.075255
0.595176	-26.424378	-84.560105
0.595781	-25.859407	-89.638267
0.596387	-25.294437	-94.392165
0.596992	-24.561797	-98.765404
0.597598	-23.844345	-102.740090
0.598203	-22.951326	-106.139992
0.598809	-21.972651	-109.292358
0.599414	-20.880374	-111.893798
0.600020	-19.742535	-113.817969
0.600625	-18.505067	-115.624472
0.601230	-17.249373	-116.852124
0.601836	-15.934146	-117.423112
0.602441	-14.547233	-117.669022
0.603047	-13.078917	-117.409013
0.603652	-11.620928	-116.701378
0.604258	-10.051767	-115.396727
0.604863	-8.378724	-113.711959
0.605469	-6.694139	-111.518019
0.606074	-4.987684	-108.875368
0.606680	-3.295202	-105.731679
0.607285	-1.507342	-102.262911
0.607891	0.176028	-98.383119
0.608496	1.942625	-93.772104
0.609102	3.695857	-89.178169
0.609707	5.497689	-84.178361
0.610313	7.326858	-78.573674
0.610918	9.128082	-72.798721
0.611523	10.931736	-66.638229
0.612129	12.575619	-60.302319
0.612734	14.203707	-53.636180
0.613340	15.859132	-46.798148
0.613945	17.297074	-39.842176
0.614551	18.795158	-32.702653
0.615156	20.149873	-25.301766
0.615762	21.480895	-17.946157
0.616367	22.795516	-10.610611
0.616973	23.983170	-2.842621
0.617578	25.103999	4.684339
0.618184	26.108189	12.050250
0.618789	26.919803	19.612457
0.619395	27.750857	26.993009
0.620000	28.402699	34.241795
0.620605	28.886873	41.406804
0.621211	29.436657	48.450349
0.621816	29.729470	55.244730
0.622422	29.952420	61.834955
0.623027	30.023497	68.178727
0.623633	29.976720	74.329188
0.624238	29.725825	79.976170
0.624844	29.287213	85.210772
0.625449	28.801824	90.635432
0.626055	28.188861	95.364115
0.626660	27.408837	99.631073
0.627266	26.541333	103.607928
0.627871	25.602753	107.175385
0.628477	24.461876	110.222283
0.629082	23.169126	112.810438
0.629687	21.868478	114.936054
0.630293	20.329084	116.570393
0.630898	18.601974	117.612596
0.631504	16.913137	118.159183
0.632109	15.105230	118.376896
0.632715	13.314941	117.930354
0.633320	11.489417	116.936411
0.633926	9.558796	115.815854
0.634531	7.648223	113.947263
0.635137	5.698770	111.538050
0.635742	3.661837	108.734894
0.636348	1.628550	105.495497
0.636953	-0.413850	101.729848
0.637559	-2.496345	97.504643
0.638164	-4.405096	92.995571
0.638770	-6.322352	88.009861
0.639375	-8.207410	82.556462
0.639980	-10.007419	76.809977
0.640586	-11.748502	70.815956
0.641191	-13.425189	64.282125
0.641797	-15.066642	57.554169
0.642402	-16.723890	50.968011
0.643008	-18.189169	43.729528
0.643613	-19.480097	36.433566
0.644219	-20.707238	29.062503
0.644824	-21.828067	21.624472
0.645430	-22.882072	14.011294
0.646035	-23.830372	6.291023
0.646641	-24.676006	-1.402950
0.647246	-25.476078	-9.051103
0.647852	-26.188670	-16.766494
0.648457	-26.748781	-24.373165
0.649062	-27.130288	-31.717658
0.649668	-27.489925	-39.224825
0.650273	-27.646659	-46.387394
0.650879	-27.677641	-53.054889
0.651484	-27.700726	-59.882348
0.652090	-27.581657	-66.382288
0.652695	-27.432213	-72.529224
0.653301	-27.164915	-78.414524
0.653906	-26.763361	-83.984236
0.654512	-26.268859	-89.104965
0.655117	-25.615194	-93.843138
0.655723	-24.855217	-98.253250
0.656328	-24.062436	-102.252609
0.656934	-23.159090	-105.795122
0.657539	-22.219902	-108.777492
0.658145	-21.260666	-111.612913
0.658750	-20.165352	-113.837218
0.659355	-19.080972	-115.422484
0.659961	-17.859299	-116.788680
0.660566	-16.442012	-117.552709
0.661172	-15.045380	-117.842813
0.661777	-13.574026	-117.634047
0.662383	-12.057717	-116.888725
0.662988	-10.472761	-115.700658
0.663594	-8.883553	-114.053034
0.664199	-7.282802	-111.952361
0.664805	-5.622517	-109.445814
0.665410	-3.908772	-106.355265
0.666016	-2.188952	-102.786453
0.666621	-0.390158	-99.184292
0.667227	1.486396	-94.713177
0.667832	3.304630	-89.855167
0.668438	5.131369	-84.868373
0.669043	6.888246	-79.509596
0.669648	8.629328	-73.772058
0.670254	10.380130	-67.713780
0.670859	12.075650	-61.488218
0.671465	13.785142	-54.812047
0.672070	15.441175	-47.975099
0.672676	17.062581	-40.973037
0.673281	18.631134	-33.813722
0.673887	20.053889	-26.529689
0.674492	21.496690	-18.929255
0.675098	22.720794	-11.689958
0.675703	23.830081	-4.128565
0.676309	24.929040	3.545073
0.676914	25.928370	11.015639
0.677520	26.896110	18.547208
0.678125	27.792166	26.009912
0.678730	28.504151	33.298011
0.679336	29.084917	40.471153
0.679941	29.541146	47.483790
0.680547	29.806622	54.293896
0.681152	30.009525	60.884663
0.681758	30.076957	67.102634
0.682363	29.987048	73.290509
0.682969	29.835781	79.221088
0.683574	29.573951	84.442133
0.684180	29.151741	89.737738
0.684785	28.569761	94.704198
0.685391	27.857168	99.070117
0.685996	26.986627	103.070288
0.686602	25.984260	106.610362
0.687207	24.778989	109.691963
0.687813	23.484416	112.346544
0.688418	22.173440	114.550786
0.689023	20.728209	116.232572
0.689629	19.171805	117.526921
0.690234	17.480538	118.091402
0.690840	15.828757	118.451727
0.691445	13.836779	118.169215
0.692051	11.939571	117.142195
0.692656	10.030213	115.985035
0.693262	8.006645	114.302979
0.693867	6.089389	111.992184
0.694473	4.045167	109.258977
0.695078	2.011272	106.098750
0.695684	0.042379	102.441008
0.696289	-1.971469	98.282229
0.696895	-4.004149	93.741977
0.697500	-5.962107	88.816186
0.698105	-8.008759	83.475032
0.698711	-9.861621	77.655886
0.699316	-11.645835	71.694941
0.699922	-13.411824	65.445249
0.700527	-14.915376	58.589051
0.701133	-16.505799	51.837779
0.701738	-17.911544	44.974532
0.702344	-19.389580	37.711376
0.702949	-20.611861	30.236743
0.703555	-21.810450	22.700836
0.704160	-23.015113	15.049159
0.704766	-23.917244	7.391517
0.705371	-24.751336	-0.339057
0.705977	-25.552622	-7.988565
0.706582	-26.161333	-15.597405
0.707187	-26.702611	-23.333131
0.707793	-27.140008	-30.689282
0.708398	-27.430391	-37.935628
0.709004	-27.798533	-45.367423
0.709609	-27.924892	-52.231213
0.710215	-27.916387	-58.837705
0.710820	-27.895732	-65.428743
0.711426	-27.600490	-71.556700
0.712031	-27.325294	-77.419226
0.712637	-26.938927	-82.997343
0.713242	-26.281617	-88.190733
0.713848	-25.836323	-93.027867
0.714453	-25.210602	-97.461024
0.715059	-24.518057	-101.608959
0.715664	-23.581299	-105.341802
0.716270	-22.718048	-108.362129
0.716875	-21.595396	-111.111061
0.717480	-20.508587	-113.549284
0.718086	-19.344626	-115.221852
0.718691	-18.038510	-116.410462
0.719297	-16.767630	-117.307884
0.719902	-15.419597	-117.712131
0.720508	-13.962823	-117.624557
0.721113	-12.448944	-116.991482
0.721719	-10.948430	-115.899663
0.722324	-9.295435	-114.307891
0.722930	-7.566502	-112.232975
0.723535	-5.818738	-109.739171
0.724141	-4.109246	-106.937099
0.724746	-2.258814	-103.288304
0.725352	-0.504975	-99.395498
0.725957	1.278025	-95.416203
0.726562	3.164298	-90.615129
0.727168	4.986785	-85.589836
0.727773	6.804411	-80.256816
0.728379	8.666385	-74.579739
0.728984	10.433590	-68.514411
0.729590	12.183177	-62.235438
0.730195	13.932156	-55.660938
0.730801	15.510430	-48.914546
0.731406	17.103890	-41.930106
0.732012	18.570384	-34.772147
0.732617	20.056319	-27.701490
0.733223	21.438978	-20.191339
0.733828	22.739019	-12.619373
0.734434	23.986207	-5.338052
0.735039	25.093064	2.253978
0.735645	26.163471	9.865529
0.736250	27.055882	17.397640
0.736855	27.931283	24.721257
0.737461	28.601350	32.022641
0.738066	29.169966	39.232927
0.738672	29.701525	46.333408
0.739277	30.067237	53.064618
0.739883	30.341218	59.795013
0.740488	30.425052	66.224461
0.741094	30.420192	72.241528
0.741699	30.124949	78.296553
0.742305	29.857044	83.886599
0.742910	29.402029	88.937107
0.743516	28.796356	93.933120
0.744121	28.043062	98.409386
0.744727	27.242383	102.499029
0.745332	26.179266	106.072450
0.745938	24.940582	109.282023
0.746543	23.769939	112.012247
0.747148	22.343539	114.232215
0.747754	20.808398	116.020824
0.748359	19.140823	117.263930
0.748965	17.406423	117.986477
0.749570	15.737633	118.163792
0.750176	13.862902	118.140476
0.750781	11.908589	117.438263
0.751387	10.032035	116.097552
0.751992	8.013327	114.408717
0.752598	5.988545	112.297199
0.753203	3.943715	109.577278
0.753809	1.866688	106.444162
0.754414	-0.150805	102.859624
0.755020	-2.204140	98.820953
0.755625	-4.144480	94.323810
0.756230	-6.103653	89.384192
0.756836	-8.056751	84.148506
0.757441	-9.943632	78.445129
0.758047	-11.803176	72.349978
0.758652	-13.570988	66.242084
0.759258	-15.211226	59.790947
0.759863	-16.751227	52.868052
0.760469	-18.142392	45.918317
0.761074	-19.528697	38.721044
0.761680	-20.769202	31.357843
0.762285	-21.978119	23.838204
0.762891	-23.106238	16.275456
0.763496	-24.197907	8.526445
0.764102	-24.984006	0.823796
0.764707	-25.771928	-6.928197
0.765312	-26.451716	-14.470340
0.765918	-26.963834	-22.133947
0.766523	-27.330762	-29.736008
0.767129	-27.573152	-36.775757
0.767734	-27.864750	-44.077413
0.768340	-27.986857	-51.177894
0.768945	-28.064009	-57.922930
0.769551	-27.916995	-64.429377
0.770156	-27.677034	-70.652770
0.770762	-27.422493	-76.539156
0.771367	-26.938927	-82.134353
0.771973	-26.356946	-87.399863
0.772578	-25.745198	-92.296915
0.773184	-25.028354	-96.832558
0.773789	-24.291461	-100.869873
0.774395	-23.419098	-104.767289
0.775000	-22.486592	-108.050607
0.775605	-21.516422	-110.619512
0.776211	-20.340918	-112.993479
0.776816	-19.095552	-114.936357
0.777422	-17.819812	-116.316653
0.778027	-16.407385	-117.131653
0.778633	-15.024117	-117.549727
0.779238	-13.584961	-117.567621
0.779844	-12.152486	-117.011274
0.780449	-10.653795	-116.024109
0.781055	-9.013557	-114.504185
0.781660	-7.343552	-112.635594
0.782266	-5.598825	-110.080246
0.782871	-3.850452	-107.335381
0.783477	-1.956281	-103.869866
0.784082	-0.205479	-99.941543
0.784687	1.531958	-95.937846
0.785293	3.329537	-91.464834
0.785898	5.057254	-86.478040
0.786504	6.836001	-81.205480
0.787109	8.639655	-75.558227
0.787715	10.454244	-69.569899
0.788320	12.200794	-63.323460
0.788926	13.978326	-56.769567
0.789531	15.585759	-50.076586
0.790137	17.137303	-43.140135
0.790742	18.591039	-35.918733
0.791348	19.953044	-28.891184
0.791953	21.273740	-21.465083
0.792559	22.551910	-13.775719
0.793164	23.696432	-6.449391
0.793770	24.931470	1.117424
0.794375	25.964820	8.648451
0.794980	26.772181	16.170530
0.795586	27.673705	23.614526
0.796191	28.344380	30.889611
0.796797	28.828554	38.067363
0.797402	29.225248	45.196854
0.798008	29.561801	52.005063
0.798613	29.802977	58.687199
0.799219	29.956673	65.271458
0.799824	29.945738	71.321603
0.800430	29.721572	77.247301
0.801035	29.481004	83.036624
0.801641	29.025990	88.182839
0.802246	28.386904	93.099954
0.802852	27.552813	97.581914
0.803457	26.700497	101.706532
0.804063	25.659857	105.380812
0.804668	24.566973	108.620208
0.805273	23.392076	111.503618
0.805879	22.109653	113.838542
0.806484	20.646197	115.666193
0.807090	19.049698	117.059231
0.807695	17.293429	117.991628
0.808301	15.570572	118.101162
0.808906	13.728038	118.107127
0.809512	11.839334	117.592262
0.810117	9.934228	116.330448
0.810723	8.139079	114.816217
0.811328	6.165326	112.674604
0.811934	4.133254	110.107326
0.812539	2.094499	107.004306
0.813145	0.124391	103.492429
0.813750	-1.921654	99.492529
0.814355	-3.964054	95.032801
0.814961	-5.900142	90.133580
0.815566	-7.711086	85.021255
0.816172	-9.633202	79.456695
0.816777	-11.366387	73.333889
0.817383	-13.044290	67.331463
0.817988	-14.675415	60.856195
0.818594	-16.249436	54.047173
0.819199	-17.703173	47.103673
0.819805	-19.039663	39.869257
0.820410	-20.394378	32.508225
0.821016	-21.445952	25.058807
0.821621	-22.589867	17.488467
0.822227	-23.498072	9.873391
0.822832	-24.307256	2.143630
0.823438	-25.067841	-5.617852
0.824043	-25.745806	-13.156471
0.824648	-26.316244	-20.725726
0.825254	-26.796773	-28.512423
0.825859	-27.107811	-35.635407
0.826465	-27.370856	-42.812888
0.827070	-27.496608	-49.845316
0.827676	-27.415811	-56.665726
0.828281	-27.421278	-63.261373
0.828887	-27.202580	-69.509438
0.829492	-26.917665	-75.470383
0.830098	-26.606019	-81.202498
0.830703	-26.109696	-86.509219
0.831309	-25.676551	-91.510383
0.831914	-24.994941	-96.205175
0.832520	-24.241647	-100.263097
0.833125	-23.386293	-103.996753
0.833730	-22.439208	-107.524625
0.834336	-21.536469	-110.244818
0.834941	-20.387695	-112.595739
0.835547	-19.269904	-114.609110
0.836152	-18.101690	-116.119816
0.836758	-16.825949	-117.114843
0.837363	-15.466982	-117.616695
0.837969	-14.019320	-117.605308
0.838574	-12.535816	-117.192114
0.839180	-11.006142	-116.198713
0.839785	-9.461281	-114.816792
0.840391	-7.802818	-113.058007
0.840996	-6.195385	-110.573963
0.841602	-4.537530	-107.812018
0.842207	-2.728408	-104.640674
0.842812	-0.972139	-100.714790
0.843418	0.751326	-96.640872
0.844023	2.621197	-92.163522
0.844629	4.412094	-87.250202
0.845234	6.147101	-81.973847
0.845840	7.933138	-76.408474
0.846445	9.689408	-70.499043
0.847051	11.398900	-64.292188
0.847656	13.061008	-57.810685
0.848262	14.698816	-51.120144
0.848867	16.319006	-44.287534
0.849473	17.823772	-37.078332
0.850078	19.385643	-29.814905
0.850684	20.709984	-22.688939
0.851289	21.948667	-15.091758
0.851895	23.172770	-7.621463
0.852500	24.279020	-0.161742
0.853105	25.340314	7.406971
0.853711	26.257633	14.961044
0.854316	27.244205	22.377114
0.854922	27.973808	29.734621
0.855527	28.599528	36.982051
0.856133	29.168751	44.201827
0.856738	29.576988	51.061007
0.857344	29.811481	57.668855
0.857949	29.960925	64.351533
0.858555	29.962140	70.426078
0.859160	29.935411	76.370484
0.859766	29.593391	82.155198
0.860371	29.216743	87.480897
0.860977	28.700372	92.464980
0.861582	28.068577	97.074911
0.862187	27.248458	101.313943
0.862793	26.376094	105.065494
0.863398	25.204235	108.333087
0.864004	23.965552	111.232493
0.864609	22.646679	113.633843
0.865215	21.228785	115.476135
0.865820	19.717944	116.824166
0.866426	18.117800	118.007624
0.867031	16.402840	118.284172
0.867637	14.570634	118.132071
0.868242	12.783382	117.772017
0.868848	10.841219	116.710022
0.869453	8.865644	115.084631
0.870059	6.936238	113.050383
0.870664	4.933325	110.525400
0.871270	2.870878	107.503175
0.871875	0.878900	104.061248
0.872480	-1.083310	100.162206
0.873086	-3.129355	95.867322
0.873691	-5.049041	90.974880
0.874297	-6.912230	85.803992
0.874902	-8.918180	80.441962
0.875508	-10.754031	74.258695
0.876113	-12.569228	68.135889
0.876719	-14.208858	61.727047
0.877324	-15.759794	54.978757
0.877930	-17.250588	48.133675
0.878535	-18.624743	41.000117
0.879141	-19.922354	33.682465
0.879746	-21.134915	26.175569
0.880352	-22.324391	18.611465
0.880957	-23.394191	10.979308
0.881563	-24.392913	3.243583
0.882168	-25.223360	-4.617945
0.882773	-25.955999	-12.274774
0.883379	-26.549522	-19.618453
0.883984	-27.023976	-27.442566
0.884590	-27.378754	-34.798175
0.885195	-27.681286	-41.962641
0.885801	-27.892087	-48.964704
0.886406	-28.025129	-55.903052
0.887012	-27.981997	-62.530421
0.887617	-27.842880	-68.875820
0.888223	-27.604135	-74.886109
0.888828	-27.257255	-80.625545
0.889434	-26.760931	-86.041800
0.890039	-26.233625	-90.897912
0.890645	-25.578744	-95.701697
0.891250	-24.798720	-99.880540
0.891855	-24.020518	-103.487039
0.892461	-23.233812	-107.182737
0.893066	-22.256351	-110.132301
0.893672	-21.152532	-112.491627
0.894277	-19.995861	-114.517470
0.894883	-18.730448	-116.078334
0.895488	-17.454099	-117.123519
0.896094	-16.073262	-117.653297
0.896699	-14.556346	-117.753342
0.897305	-13.168826	-117.402778
0.897910	-11.729669	-116.536263
0.898516	-10.087609	-115.043181
0.899121	-8.508728	-113.457102
0.899727	-6.745169	-111.116212
0.900332	-5.066051	-108.137096
0.900937	-3.239312	-105.122462
0.901543	-1.384628	-101.424323
0.902148	0.456083	-97.301061
0.902754	2.213568	-92.887966
0.903359	4.046989	-88.083639
0.903965	5.809334	-82.940949
0.904570	7.592941	-77.359036
0.905176	9.435474	-71.452859
0.905781	11.287121	-65.362588
0.906387	13.031848	-58.874578
0.906992	14.719470	-52.099446
0.907598	16.426533	-45.299371
0.908203	17.884522	-38.256640
0.908809	19.401438	-30.832707
0.909414	20.776201	-23.656040
0.910020	22.099326	-16.239699
0.910625	23.335579	-8.691049
0.911230	24.588235	-1.228075
0.911836	25.676867	6.403810
0.912441	26.646430	13.944869
0.913047	27.565571	21.451494
0.913652	28.374755	28.771044
0.914258	28.951268	36.008714
0.914863	29.412964	43.163691
0.915469	29.803584	50.147317
0.916074	30.042937	56.633972
0.916680	30.238551	63.302552
0.917285	30.244018	69.706514
0.917891	30.236121	75.612962
0.918496	30.037470	81.279194
0.919102	29.705170	86.794410
0.919707	29.091599	91.818619
0.920312	28.445224	96.433973
0.920918	27.499961	100.583534
0.921523	26.563810	104.406119
0.922129	25.492188	107.778366
0.922734	24.310002	110.745011
0.923340	23.023934	113.209262
0.923945	21.634592	115.366871
0.924551	20.001644	116.624889
0.925156	18.366873	117.729993
0.925762	16.644624	118.473959
0.926367	14.787510	118.329720
0.926973	12.900629	117.811330
0.927578	10.918978	116.808712
0.928184	9.072192	115.394526
0.928789	7.017035	113.406912
0.929395	5.040244	110.998241
0.930000	3.110839	108.124592
0.930605	0.914742	104.695409
0.931211	-1.005551	100.827004
0.931816	-3.133608	96.525884
0.932422	-5.092173	91.907006
0.933027	-7.057421	86.564768
0.933633	-8.933975	81.154477
0.934238	-10.828753	75.597237
0.934844	-12.526703	69.269461
0.935449	-14.191849	62.793651
0.936055	-15.784094	56.189870
0.936660	-17.327133	49.309271
0.937266	-18.789982	42.100883
0.937871	-20.060863	34.801939
0.938477	-21.388848	27.325679
0.939082	-22.489630	19.782181
0.939688	-23.504755	12.093902
0.940293	-24.383801	4.405351
0.940898	-25.180835	-3.179629
0.941504	-25.871557	-10.961717
0.942109	-26.491203	-18.604176
0.942715	-26.999069	-25.890920
0.943320	-27.415811	-33.466953
0.943926	-27.695866	-40.777285
0.944531	-27.888442	-47.805104
0.945137	-27.977137	-54.678112
0.945742	-27.909097	-61.358621
0.946348	-27.708624	-67.727065
0.946953	-27.469878	-73.781548
0.947559	-27.126643	-79.497667
0.948164	-26.692891	-85.044875
0.948770	-26.173483	-90.147439
0.949375	-25.581174	-94.708568
0.949980	-24.818160	-99.176158
0.950586	-24.026593	-103.138372
0.951191	-23.140865	-106.381022
0.951797	-22.112375	-109.376406
0.952402	-21.026173	-111.939889
0.953008	-19.907166	-114.057101
0.953613	-18.659371	-115.635045
0.954219	-17.412790	-116.827722
0.954824	-16.120647	-117.529664
0.955430	-14.676630	-117.735176
0.956035	-13.211351	-117.373767
0.956641	-11.766726	-116.607027
0.957246	-10.105834	-115.440378
0.957852	-8.499616	-113.504006
0.958457	-6.774328	-111.438851
0.959063	-5.049649	-108.810027
0.959668	-3.269079	-105.423681
0.960273	-1.492155	-101.874932
0.960879	0.254395	-97.991073
0.961484	2.050759	-93.590721
0.962090	3.869601	-88.787750
0.962695	5.679937	-83.691693
0.963301	7.525509	-78.161023
0.963906	9.323695	-72.342690
0.964512	11.081180	-66.162406
0.965117	12.798570	-59.867436
0.965723	14.479510	-53.245490
0.966328	16.082083	-46.171037
0.966934	17.626336	-39.326497
0.967539	19.104981	-32.276445
0.968145	20.553857	-24.745961
0.968750	21.836280	-17.274581
0.969355	23.089544	-9.870441
0.969961	24.311217	-2.390114
0.970566	25.394989	5.172363
0.971172	26.360907	12.700136
0.971777	27.292198	20.169618
0.972383	27.950723	27.475611
0.972988	28.650558	34.817664
0.973594	29.176041	41.935497
0.974199	29.622550	48.812842
0.974805	30.033825	55.870757
0.975410	30.128594	62.267398
0.976016	30.208784	68.543932
0.976621	30.100649	74.765969
0.977227	29.875268	80.408613
0.977832	29.459134	85.802094
0.978437	28.943978	90.890289
0.979043	28.255078	95.646356
0.979648	27.472624	99.944493
0.980254	26.546801	103.823743
0.980859	25.607613	107.365443
0.981465	24.388977	110.487714
0.982070	23.075571	112.857342
0.982676	21.727539	114.975367
0.983281	20.108563	116.683452
0.983887	18.471363	117.546984
0.984492	16.682896	118.140747
0.985098	14.865269	118.408889
0.985703	12.934649	117.895108
0.986309	11.222119	117.000397
0.986914	9.262338	115.575366
0.987520	7.312278	113.723857
0.988125	5.291748	111.335249
0.988730	3.240843	108.484374
0.989336	1.200873	105.187771
0.989941	-0.828770	101.469840
0.990547	-2.866310	97.069217
0.991152	-4.854643	92.513511
0.991758	-6.758533	87.655502
0.992363	-8.690977	82.036716
0.992969	-10.484303	76.254172
0.993574	-12.259405	70.252559
0.994180	-13.907541	63.825551
0.994785	-15.493104	57.130401
0.995391	-17.090817	50.222419
0.995996	-18.505674	43.133596
0.996602	-19.833659	35.860951
0.997207	-21.065053	28.408279
0.997812	-22.116020	20.921175
0.998418	-23.163950	13.453862
0.999023	-24.052716	5.563053
0.999629	-24.875872	-2.121159
1.000234	-25.641316	-9.585760
1.000840	-26.301664	-17.430207
1.001445	-26.784623	-24.981026
1.002051	-27.211085	-32.407941
1.002656	-27.430391	-39.671368
1.003262	-27.636332	-46.765884
1.003867	-27.664277	-53.710468
1.004473	-27.585910	-60.379319
1.005078	-27.476560	-66.838861
1.005684	-27.307069	-72.964921
1.006289	-27.006966	-78.825278
1.006895	-26.544662	-84.285184
1.007500	-26.027076	-89.601123
1.008105	-25.560520	-94.253350
1.008711	-24.776243	-98.469336
1.009316	-23.878365	-102.574433
1.009922	-23.012683	-106.006328
1.010527	-22.054663	-109.031265
1.011133	-21.001873	-111.665511
1.011738	-19.981281	-113.957598
1.012344	-18.775402	-115.645890
1.012949	-17.560411	-116.854021
1.013555	-16.226351	-117.685018
1.014160	-14.810886	-117.901647
1.014766	-13.304298	-117.670920
1.015371	-11.808036	-116.802237
1.015977	-10.231585	-115.716383
1.016582	-8.641162	-114.013992
1.017187	-6.985129	-111.672831
1.017793	-5.356434	-109.258196
1.018398	-3.674279	-106.192319
1.019004	-1.936842	-102.600190
1.019609	-0.131365	-98.714162
1.020215	1.639485	-94.367493
1.020820	3.465009	-89.659415
1.021426	5.267448	-84.544108
1.022031	7.049840	-79.108874
1.022637	8.736855	-73.382452
1.023242	10.448169	-67.296520
1.023848	12.146727	-60.964677
1.024453	13.803367	-54.487782
1.025059	15.461222	-47.462674
1.025664	17.015196	-40.339961
1.026270	18.496270	-33.373415
1.026875	19.967624	-26.015095
1.027480	21.188690	-18.528261
1.028086	22.463216	-11.102160
1.028691	23.651477	-3.601228
1.029297	24.706697	3.934679
1.029902	25.726682	11.467875
1.030508	26.605728	18.976398
1.031113	27.413089	26.346377
1.031719	28.139654	33.684634
1.032324	28.755047	40.939927
1.032930	29.213706	47.775249
1.033535	29.527174	54.714682
1.034141	29.691197	61.378652
1.034746	29.742834	67.539686
1.035352	29.620728	73.670084
1.035957	29.471284	79.498719
1.036563	29.296933	85.003090
1.037168	28.809721	90.138731
1.037773	28.213161	94.946041
1.038379	27.571646	99.404955
1.038984	26.708394	103.343040
1.039590	25.696914	106.811807
1.040195	24.540850	109.969053
1.040801	23.232305	112.549887
1.041406	21.962032	114.517709
1.042012	20.422031	116.418563
1.042617	18.949462	117.696373
1.043223	17.264877	118.260041
1.043828	15.638004	118.522761
1.044434	13.796685	118.151320
1.045039	11.838119	117.349876
1.045645	9.922078	115.983137
1.046250	7.935568	114.125392
1.046855	5.977610	111.824087
1.047461	3.946752	109.052380
1.048066	2.005804	105.754692
1.048672	0.038734	102.186422
1.049277	-1.941702	98.029812
1.049883	-3.913024	93.298959
1.050488	-5.843645	88.541266
1.051094	-7.838053	83.173271
1.051699	-9.697597	77.302339
1.052305	-11.540738	71.285814
1.052910	-13.249016	64.963190
1.053516	-14.832756	58.293255
1.054121	-16.382477	51.521919
1.054727	-17.791867	44.483796
1.055332	-19.137470	37.236908
1.055937	-20.404098	29.777729
1.056543	-21.709606	22.188682
1.057148	-22.801882	14.651148
1.057754	-23.816400	6.875838
1.058359	-24.658996	-0.995179
1.058965	-25.468180	-8.397150
1.059570	-26.099368	-16.003821
1.060176	-26.618777	-23.653058
1.060781	-27.001499	-31.168359
1.061387	-27.400624	-38.505803
1.061992	-27.666099	-45.600319
1.062598	-27.892087	-52.600213
1.063203	-27.947977	-59.385647
1.063809	-27.858068	-65.817535
1.064414	-27.710446	-71.994837
1.065020	-27.364781	-77.915384
1.065625	-26.917057	-83.317812
1.066230	-26.414658	-88.548889
1.066836	-25.824173	-93.436451
1.067441	-25.254949	-97.701241
1.068047	-24.522310	-101.795764
1.068652	-23.676676	-105.500681
1.069258	-22.788518	-108.633796
1.069863	-21.764888	-111.352091
1.070469	-20.631301	-113.572601
1.071074	-19.368318	-115.378019
1.071680	-18.136924	-116.608111
1.072285	-16.780387	-117.407658
1.072891	-15.352772	-117.787774
1.073496	-13.997450	-117.699659
1.074102	-12.525488	-116.898215
1.074707	-10.911373	-115.882040
1.075312	-9.300295	-114.429355
1.075918	-7.590802	-112.093345
1.076523	-5.876450	-109.522813
1.077129	-4.021766	-106.585450
1.077734	-2.256992	-103.110175
1.078340	-0.468525	-99.229841
1.078945	1.326624	-94.996502
1.079551	3.059809	-90.443779
1.080156	4.880473	-85.404658
1.080762	6.719970	-80.003043
1.081367	8.537596	-74.255202
1.081973	10.344288	-68.320828
1.082578	12.127895	-61.879722
1.083184	13.815517	-55.324202
1.083789	15.556599	-48.662400
1.084395	17.085665	-41.513659
1.085000	18.569169	-34.390132
1.085605	19.993746	-27.154089
1.086211	21.341779	-19.743171
1.086816	22.647894	-12.275858
1.087422	23.890223	-4.783331
1.088027	25.090634	2.798125
1.088633	26.138564	10.410218
1.089238	27.015180	17.906541
1.089844	27.885113	25.300379
1.090449	28.543638	32.460778
1.091055	29.117114	39.788461
1.091660	29.484041	46.777239
1.092266	29.863726	53.448801
1.092871	30.087284	60.313946
1.093477	30.231261	66.741225
1.094082	30.166259	72.875689
1.094688	29.948168	78.670434
1.095293	29.637130	84.271054
1.095898	29.069122	89.437061
1.096504	28.482889	94.247353
1.097109	27.667630	98.678342
1.097715	26.832323	102.701559
1.098320	25.831778	106.322970
1.098926	24.665387	109.363360
1.099531	23.435209	112.213150
1.100137	22.022781	114.384316
1.100742	20.579980	115.973648
1.101348	18.923339	117.381598
1.101953	17.169500	118.129631
1.102559	15.345191	118.276580
1.103164	13.517844	118.042057
1.103770	11.681385	117.296736
1.104375	9.798757	116.070168
1.104980	7.854164	114.375098
1.105586	5.855503	112.159468
1.106191	3.895723	109.450662
1.106797	1.813228	106.229703
1.107402	-0.242537	102.522346
1.108008	-2.246057	98.591853
1.108613	-4.247754	94.063802
1.109219	-6.228797	88.897523
1.109824	-8.068901	83.849184
1.110430	-9.935127	78.176445
1.111035	-11.742427	72.173205
1.111641	-13.419722	65.860612
1.112246	-15.053885	59.269032
1.112852	-16.670430	52.485767
1.113457	-18.087717	45.461743
1.114062	-19.449115	38.237087
1.114668	-20.690228	30.940312
1.115273	-21.832927	23.419859
1.115879	-22.911839	15.670306
1.116484	-23.833410	8.215736
1.117090	-24.666894	0.525559
1.117695	-25.528930	-7.444961
1.118301	-26.200820	-14.944537
1.118906	-26.717191	-22.443029
1.119512	-27.144260	-30.022858
1.120117	-27.428568	-37.397988
1.120723	-27.622359	-44.524226
1.121328	-27.730494	-51.477757
1.121934	-27.738391	-58.290304
1.122539	-27.572545	-64.775603
1.123145	-27.395156	-70.999810
1.123750	-27.090801	-76.910054
1.124355	-26.728733	-82.716186
1.124961	-26.144323	-87.728737
1.125566	-25.592717	-92.563973
1.126172	-24.898957	-97.245209
1.126777	-24.084913	-101.253515
1.127383	-23.199792	-104.852693
1.127988	-22.267286	-108.124353
1.128594	-21.312911	-110.946488
1.129199	-20.157454	-113.211192
1.129805	-19.057280	-115.083036
1.130410	-17.766960	-116.480141
1.131016	-16.473602	-117.361295
1.131621	-15.030192	-117.712944
1.132227	-13.615943	-117.610188
1.132832	-12.158561	-117.238747
1.133438	-10.631925	-116.017873
1.134043	-9.062156	-114.447249
1.134648	-7.403694	-112.661894
1.135254	-5.702099	-110.114949
1.135859	-4.083731	-107.137188
1.136465	-2.287366	-103.791240
1.137070	-0.458197	-99.966215
1.137676	1.346064	-95.797946
1.138281	3.136353	-91.164428
1.138887	4.897483	-86.240263
1.139492	6.644640	-80.952250
1.140098	8.420349	-75.313402
1.140703	10.175404	-69.240483
1.141309	11.903121	-63.139909
1.141914	13.621726	-56.455062
1.142520	15.218832	-49.493126
1.143125	16.752758	-42.702540
1.143730	18.266029	-35.577929
1.144336	19.698504	-28.267869
1.144941	21.043499	-20.826042
1.145547	22.339287	-13.443320
1.146152	23.427311	-5.981973
1.146758	24.526878	1.559628
1.147363	25.540788	9.122105
1.147969	26.436844	16.554714
1.148574	27.297665	24.016062
1.149180	27.986565	31.409357
1.149785	28.525413	38.405726
1.150391	29.033280	45.715786
1.150996	29.346140	52.609942
1.151602	29.531426	59.128860
1.152207	29.626803	65.632325
1.152813	29.587316	71.828877
1.153418	29.519884	77.722040
1.154023	29.229501	83.243763
1.154629	28.804254	88.533945
1.155234	28.214983	93.433708
1.155840	27.460474	97.896961
1.156445	26.592970	101.895506
1.157051	25.617940	105.633771
1.157656	24.512298	108.898111
1.158262	23.314317	111.512022
1.158867	21.998482	113.975189
1.159473	20.533810	116.015944
1.160078	19.005351	117.204011
1.160684	17.328664	118.013589
1.161289	15.604591	118.337312
1.161895	13.808835	118.192531
1.162500	11.942001	117.530988
1.163105	10.033250	116.350511
1.163711	8.049170	114.692313
1.164316	6.137381	112.523046
1.164922	4.166666	109.859247
1.165527	2.172866	106.791744
1.166133	0.185748	103.371236
1.166738	-1.887027	99.086655
1.167344	-3.803068	94.796380
1.167949	-5.747661	90.080440
1.168555	-7.697722	84.676927
1.169160	-9.543293	79.131617
1.169766	-11.288627	73.207816
1.170371	-12.973820	66.886547
1.170977	-14.581861	60.319911
1.171582	-16.164994	53.577043
1.172187	-17.609011	46.613751
1.172793	-18.932744	39.434373
1.173398	-20.210307	31.979261
1.174004	-21.391885	24.525505
1.174609	-22.535192	17.041111
1.175215	-23.500502	9.096077
1.175820	-24.308471	1.619818
1.176426	-25.137095	-5.948895
1.177031	-25.760386	-13.637174
1.177637	-26.297412	-21.291834
1.178242	-26.737238	-28.752097
1.178848	-27.123606	-36.145122
1.179453	-27.349594	-43.333989
1.180059	-27.514225	-50.355573
1.180664	-27.543992	-57.155648
1.181270	-27.474738	-63.685412
1.181875	-27.265152	-70.050874
1.182480	-26.997854	-75.922347
1.183086	-26.601159	-81.541946
1.183691	-26.205680	-87.125756
1.184297	-25.548370	-91.867996
1.184902	-24.953024	-96.318505
1.185508	-24.239217	-100.546151
1.186113	-23.437323	-104.345690
1.186719	-22.535799	-107.612470
1.187324	-21.583246	-110.434605
1.187930	-20.454520	-112.849512
1.188535	-19.350700	-114.788866
1.189141	-18.084072	-116.183259
1.189746	-16.811369	-117.142227
1.190352	-15.426279	-117.772320
1.190957	-14.041797	-117.734092
1.191563	-12.682222	-117.119995
1.192168	-11.098481	-116.356508
1.192773	-9.547545	-114.828721
1.193379	-7.865390	-112.745400
1.193984	-6.208143	-110.422947
1.194590	-4.426966	-107.569090
1.195195	-2.667659	-104.200096
1.195801	-0.939941	-100.520665
1.196406	0.819973	-96.406350
1.197012	2.530680	-91.897006
1.197617	4.310642	-87.005648
1.198223	6.117334	-81.677508
1.198828	7.904586	-76.234954
1.199434	9.659640	-70.180200
1.200039	11.406190	-63.796302
1.200645	13.098065	-57.535493
1.201250	14.738910	-50.804555
1.201855	16.314754	-43.702719
1.202461	17.834707	-36.693878
1.203066	19.241060	-29.506095
1.203672	20.562970	-22.101141
1.204277	21.883665	-14.620001
1.204883	23.129031	-7.164347
1.205488	24.277805	0.326825
1.206094	25.315407	7.920481
1.206699	26.269175	15.481874
1.207305	27.142146	22.734727
1.207910	27.822541	30.162726
1.208516	28.367465	37.466551
1.209121	28.908136	44.398935
1.209727	29.313943	51.486673
1.210332	29.596428	58.240928
1.210937	29.791434	64.648143
1.211543	29.804799	70.945824
1.212148	29.699095	76.901888
1.212754	29.365580	82.535043
1.213359	28.957950	87.801638
1.213965	28.401484	92.769453
1.214570	27.734454	97.389958
1.215176	26.960505	101.588593
1.215781	25.955707	105.120261
1.216387	24.956377	108.560018
1.216992	23.701292	111.421467
1.217598	22.403074	113.550879
1.218203	20.909242	115.540933
1.218809	19.357699	117.073058
1.219414	17.742976	117.910291
1.220020	16.045633	118.294745
1.220625	14.266279	118.216119
1.221230	12.447437	117.667092
1.221836	10.533826	116.554126
1.222441	8.611103	114.954491
1.223047	6.688380	112.895842
1.223652	4.645372	110.379535
1.224258	2.649750	107.169420
1.224863	0.664454	103.907521
1.225469	-1.331776	100.028542
1.226074	-3.337726	95.413460
1.226680	-5.213672	90.683963
1.227285	-7.144901	85.528258
1.227891	-9.022669	79.974814
1.228496	-10.852446	74.125031
1.229102	-12.582593	67.878050
1.229707	-14.273253	61.329036
1.230312	-15.832694	54.621144
1.230918	-17.284001	47.633450
1.231523	-18.664231	40.511551
1.232129	-19.954551	33.239177
1.232734	-21.164682	25.559574
1.233340	-22.343831	18.060811
1.233945	-23.407555	10.530326
1.234551	-24.308471	2.582581
1.235156	-25.123123	-5.097835
1.235762	-25.843005	-12.668989
1.236367	-26.439566	-20.247191
1.236973	-26.890935	-27.841932
1.237578	-27.234777	-35.235770
1.238184	-27.530020	-42.428162
1.238789	-27.733531	-49.451644
1.239395	-27.816758	-56.363422
