LabVIEW Measurement	
Writer_Version	2
Reader_Version	2
Separator	Tab
Decimal_Separator	.
Multi_Headings	No
X_Columns	One
Time_Pref	Absolute
Operator	AlunosGDS-JT
Date	2019/10/09
Time	15:19:08.4651639249999940857
***End_of_Header***	
	
Channels	2		
Samples	2048	2048	
Date	2019/10/09	2019/10/09	
Time	15:30:12.0819217374999893487	15:30:12.0819217374999893487	
Y_Unit_Label	g	Newtons	
X_Dimension	Time	Time	
X0	0.0000000000000000E+0	0.0000000000000000E+0	
Delta_X	0.000605	0.000605	
***End_of_Header***			
X_Value	Acceleration (Trigger)	Force (Trigger)	Comment
0.000000	15.600339	2.329080
0.000605	22.444383	13.680251
0.001211	28.967063	24.903452
0.001816	35.420488	35.833568
0.002422	41.536752	46.518315
0.003027	47.372962	56.861717
0.003633	52.906031	66.778911
0.004238	57.906326	76.140300
0.004844	62.590724	84.877017
0.005449	66.781228	92.973610
0.006055	70.404332	100.494063
0.006660	73.534756	107.067478
0.007266	76.145164	112.789561
0.007871	78.142610	117.997322
0.008477	79.474240	122.052532
0.009082	80.333846	125.154197
0.009687	80.499085	127.286049
0.010293	80.085988	128.507465
0.010898	79.092125	128.759069
0.011504	77.407540	128.009952
0.012109	75.213874	126.213480
0.012715	72.391449	123.548326
0.013320	68.963960	119.873233
0.013926	65.125196	115.241883
0.014531	60.796183	109.747002
0.015137	55.931966	103.652935
0.015742	50.632175	96.525613
0.016348	44.978822	88.552924
0.016953	39.026581	80.141556
0.017559	32.702553	71.148625
0.018164	26.198706	61.483577
0.018770	19.432421	51.278720
0.019375	12.579871	40.797858
0.019980	5.683582	29.973210
0.020586	-1.283784	18.918920
0.021191	-8.220775	7.678367
0.021797	-15.073932	-3.618851
0.022402	-21.915547	-14.794334
0.023008	-28.529350	-26.039225
0.023613	-34.857631	-37.129846
0.024219	-40.938054	-47.588747
0.024824	-46.760898	-57.816650
0.025430	-52.167001	-67.825212
0.026035	-57.160006	-77.256551
0.026641	-61.694353	-85.968868
0.027246	-65.822892	-94.099351
0.027852	-69.363984	-101.518674
0.028457	-72.437911	-108.174240
0.029062	-74.938362	-113.991217
0.029668	-76.916368	-118.936800
0.030273	-78.293560	-122.985232
0.030879	-79.043817	-126.145460
0.031484	-79.153774	-128.234204
0.032090	-78.705442	-129.259868
0.032695	-77.575500	-129.683093
0.033301	-75.869653	-128.764794
0.033906	-73.558133	-126.817578
0.034512	-70.812860	-123.969956
0.035117	-67.435793	-120.259617
0.035723	-63.586701	-115.613355
0.036328	-59.097917	-109.980201
0.036934	-54.284122	-103.586812
0.037539	-48.969144	-96.383575
0.038145	-43.280556	-88.472703
0.038750	-37.296118	-79.825728
0.039355	-30.977557	-70.627827
0.039961	-24.430578	-60.933497
0.040566	-17.683733	-50.610972
0.041172	-10.868848	-39.895859
0.041777	-3.919099	-29.132756
0.042383	3.081679	-17.967847
0.042988	10.061802	-6.676865
0.043594	16.914352	4.698437
0.044199	23.686104	15.914318
0.044805	30.240981	27.062146
0.045410	36.702911	37.957557
0.046016	42.813708	48.630647
0.046621	48.459771	58.826557
0.047227	53.870734	68.618762
0.047832	58.936031	77.879835
0.048438	63.511688	86.616552
0.049043	67.592842	94.435513
0.049648	71.150336	101.773228
0.050254	74.188421	108.365080
0.050859	76.678545	114.028601
0.051465	78.635288	118.828319
0.052070	79.855139	122.701604
0.052676	80.597499	125.679365
0.053281	80.729325	127.649898
0.053887	80.155242	128.667971
0.054492	79.025301	128.727347
0.055098	77.269638	127.744521
0.055703	75.006110	125.872134
0.056309	72.091954	122.846927
0.056914	68.560583	119.128996
0.057520	64.569337	114.493579
0.058125	60.043496	108.695038
0.058730	55.126427	102.309784
0.059336	49.819954	95.091906
0.059941	44.076691	87.245832
0.060547	38.046083	78.563882
0.061152	31.736635	69.422375
0.061758	25.202413	59.663789
0.062363	18.326171	49.442122
0.062969	11.459649	38.800484
0.063574	4.480741	27.873893
0.064180	-2.530972	16.780832
0.064785	-9.501376	5.628936
0.065391	-16.359393	-5.942660
0.065996	-23.071610	-17.020538
0.066602	-29.633777	-28.025212
0.067207	-35.983320	-39.020126
0.067812	-42.005423	-49.646853
0.068418	-47.769948	-59.904037
0.069023	-53.091001	-69.707630
0.069629	-58.062745	-78.966805
0.070234	-62.532697	-87.628692
0.070840	-66.548849	-95.628764
0.071445	-70.036481	-102.885413
0.072051	-73.061809	-109.402705
0.072656	-75.465669	-115.135092
0.073262	-77.306380	-119.867571
0.073867	-78.573008	-123.644336
0.074473	-79.217561	-126.801310
0.075078	-79.302003	-128.662851
0.075684	-78.705442	-129.473785
0.076289	-77.516573	-129.478665
0.076895	-75.745724	-128.457881
0.077500	-73.344902	-126.433665
0.078105	-70.377286	-123.400595
0.078711	-66.903627	-119.501010
0.079316	-62.926354	-114.665233
0.079922	-58.475234	-108.914410
0.080527	-53.492556	-102.277010
0.081133	-48.224962	-95.003009
0.081738	-42.436745	-87.104608
0.082344	-36.347210	-78.169970
0.082949	-29.994629	-68.737818
0.083555	-23.426995	-58.956186
0.084160	-16.608466	-48.655080
0.084766	-9.788721	-37.992293
0.085371	-2.852945	-27.021238
0.085977	4.127179	-15.847382
0.086582	11.093330	-4.590290
0.087188	17.954992	6.692829
0.087793	24.713987	17.951548
0.088398	31.380035	29.069281
0.089004	37.717428	39.904774
0.089609	43.737101	50.565120
0.090215	49.434194	60.745305
0.090820	54.764967	70.226802
0.091426	59.724561	79.563789
0.092031	64.192690	88.197480
0.092637	68.242863	95.979297
0.093242	71.717129	103.103637
0.093848	74.771009	109.559112
0.094453	77.174869	115.073786
0.095059	78.920204	119.688868
0.095664	80.101783	123.411408
0.096270	80.712923	126.138108
0.096875	80.675866	128.015374
0.097480	80.014303	128.826579
0.098086	78.789592	128.503127
0.098691	76.909394	127.540906
0.099297	74.464832	125.477919
0.099902	71.551891	122.280819
0.100508	67.916030	118.343277
0.101113	63.908990	113.489334
0.101719	59.350343	107.691877
0.102324	54.306308	101.048512
0.102930	48.902028	93.680703
0.103535	43.109558	85.590888
0.104141	37.063763	76.866371
0.104746	30.708145	67.569781
0.105352	24.124108	57.727689
0.105957	17.283101	47.440410
0.106563	10.423870	36.858690
0.107168	3.447391	25.713030
0.107773	-3.624464	14.713778
0.108379	-10.559025	3.596587
0.108984	-17.391527	-7.792813
0.109590	-24.152345	-19.067799
0.110195	-30.659837	-30.152998
0.110801	-36.941948	-40.960565
0.111406	-42.879609	-51.510292
0.112012	-48.667826	-61.711083
0.112617	-53.950000	-71.421409
0.113223	-58.761364	-80.549901
0.113828	-63.216736	-89.188472
0.114434	-67.196440	-97.125101
0.115039	-70.612387	-104.277367
0.115645	-73.484626	-110.416711
0.116250	-75.778529	-116.129305
0.116855	-77.432739	-120.699381
0.117461	-78.660487	-124.298288
0.118066	-79.195083	-127.032037
0.118672	-79.159241	-128.877040
0.119277	-78.538988	-129.673875
0.119883	-77.234695	-129.414680
0.120488	-75.304682	-128.172929
0.121094	-72.801193	-126.012338
0.121699	-69.788623	-122.824726
0.122305	-66.183137	-118.656729
0.122910	-62.095907	-113.568805
0.123516	-57.519036	-107.903386
0.124121	-52.485936	-101.079453
0.124727	-47.118713	-93.379786
0.125332	-41.359048	-85.333081
0.125938	-35.207548	-76.572775
0.126543	-28.766881	-67.047627
0.127148	-22.160367	-56.996498
0.127754	-15.383147	-46.663128
0.128359	-8.448586	-35.981091
0.128965	-1.515847	-24.956353
0.129570	5.472781	-13.674861
0.130176	12.342340	-2.490431
0.130781	19.245919	8.740091
0.131387	25.904678	19.994742
0.131992	32.434040	31.226077
0.132598	38.712506	41.835723
0.133203	44.770451	52.284592
0.133809	50.398897	62.625554
0.134414	55.655556	72.247493
0.135020	60.494865	81.213582
0.135625	64.888272	89.568828
0.136230	68.785356	97.310247
0.136836	72.187939	104.407475
0.137441	74.997605	110.548175
0.138047	77.250199	115.775727
0.138652	79.025301	120.353123
0.139258	80.035566	123.997850
0.139863	80.539787	126.380764
0.140469	80.392773	128.001818
0.141074	79.671676	128.887040
0.141680	78.290231	128.515057
0.142285	76.331058	127.125272
0.142891	73.781399	124.827220
0.143496	70.692892	121.656690
0.144102	67.007824	117.454530
0.144707	62.882930	112.452282
0.145313	58.249561	106.492422
0.145918	53.116832	99.747657
0.146523	47.653017	92.285767
0.147129	41.754236	83.995049
0.147734	35.639186	75.119244
0.148340	29.223426	65.842718
0.148945	22.545228	55.758511
0.149551	15.731558	45.311540
0.150156	8.871111	34.801939
0.150762	1.824163	23.828986
0.151367	-5.125586	12.611478
0.151973	-12.021875	1.364147
0.152578	-18.921201	-9.972655
0.153184	-25.504630	-21.184198
0.153789	-32.075301	-32.222492
0.154395	-38.219511	-43.068558
0.155000	-44.126190	-53.570297
0.155605	-49.733374	-63.507012
0.156211	-54.921993	-73.320094
0.156816	-59.664103	-82.338510
0.157422	-64.011341	-90.530267
0.158027	-67.883517	-98.379052
0.158633	-71.129973	-105.455132
0.159238	-73.870385	-111.568719
0.159844	-76.036107	-116.880049
0.160449	-77.659335	-121.295042
0.161055	-78.738854	-124.843791
0.161660	-79.083912	-127.411069
0.162266	-78.867643	-128.955395
0.162871	-78.134396	-129.591724
0.163477	-76.704352	-129.184224
0.164082	-74.657092	-127.807182
0.164687	-72.053974	-125.280301
0.165293	-68.952709	-122.085912
0.165898	-65.175910	-117.851760
0.166504	-61.027930	-112.469395
0.167109	-56.367225	-106.403254
0.167715	-51.269730	-99.599112
0.168320	-45.810168	-91.975090
0.168926	-39.950873	-83.643704
0.169531	-33.739232	-74.705811
0.170137	-27.268797	-65.108816
0.170742	-20.693873	-55.073140
0.171348	-13.764779	-44.609088
0.171953	-6.909800	-33.827820
0.172559	0.058174	-22.810674
0.173164	6.987268	-11.648747
0.173770	13.774207	-0.205393
0.174375	20.720311	10.958161
0.174980	27.378462	22.132559
0.175586	33.831279	33.264120
0.176191	40.087268	44.023969
0.176797	46.001844	54.380927
0.177402	51.558606	64.429617
0.178008	56.652456	73.965067
0.178613	61.465643	82.833280
0.179219	65.767318	91.090379
0.179824	69.527716	98.731753
0.180430	72.808799	105.634584
0.181035	75.550426	111.702081
0.181641	77.758672	116.689688
0.182246	79.293206	121.016565
0.182852	80.223889	124.646651
0.183457	80.499692	126.913795
0.184062	80.223282	128.228749
0.184668	79.360031	128.768558
0.185273	77.825497	128.300055
0.185879	75.744825	126.763592
0.186484	73.139884	124.254605
0.187090	69.882493	120.886696
0.187695	66.155508	116.549788
0.188301	61.846542	111.246049
0.188906	57.102610	105.009371
0.189512	51.914598	98.183539
0.190117	46.291012	90.700502
0.190723	40.418961	82.200476
0.191328	34.285078	73.160912
0.191934	27.785484	63.914209
0.192539	21.108501	53.928149
0.193145	14.318523	43.421530
0.193750	7.357232	32.616675
0.194355	0.331547	21.628810
0.194961	-6.678952	10.416454
0.195566	-13.522389	-0.869106
0.196172	-20.356713	-12.150870
0.196777	-27.003321	-23.329606
0.197383	-33.378379	-34.249148
0.197988	-39.508617	-45.149168
0.198594	-45.323564	-55.520496
0.199199	-50.876680	-65.307008
0.199805	-56.062869	-75.014622
0.200410	-60.719322	-83.983965
0.201016	-65.014316	-92.261398
0.201621	-68.693916	-99.844209
0.202227	-71.897847	-106.661365
0.202832	-74.520406	-112.697953
0.203437	-76.491728	-117.796450
0.204043	-78.008645	-122.045514
0.204648	-78.938113	-125.390920
0.205254	-79.172606	-127.843242
0.205859	-78.836661	-129.228959
0.206465	-77.940605	-129.514183
0.207070	-76.445559	-129.105056
0.207676	-74.265865	-127.455805
0.208281	-71.573445	-124.635838
0.208887	-68.273529	-121.136976
0.209492	-64.434765	-116.743131
0.210098	-60.103322	-111.394929
0.210703	-55.363642	-105.146321
0.211309	-50.233950	-98.138022
0.211914	-44.652889	-90.464384
0.212520	-38.822147	-82.032681
0.213125	-32.525456	-72.895513
0.213730	-25.997309	-63.172173
0.214336	-19.306353	-53.165508
0.214941	-12.462309	-42.598971
0.215547	-5.459708	-31.582909
0.216152	1.455413	-20.627850
0.216758	8.424602	-9.521504
0.217363	15.350658	1.951945
0.217969	22.102971	13.242385
0.218574	28.694297	24.373946
0.219180	35.195107	35.331716
0.219785	41.352074	46.084245
0.220391	47.253893	56.472924
0.220996	52.715885	66.376833
0.221602	57.836464	75.690775
0.222207	62.485628	84.527267
0.222812	66.671879	92.746407
0.223418	70.311992	100.033422
0.224023	73.497699	106.722336
0.224629	76.084415	112.809082
0.225234	78.143825	117.797232
0.225840	79.609104	121.836445
0.226445	80.435905	125.003180
0.227051	80.671613	127.281169
0.227656	80.299219	128.535933
0.228262	79.216054	128.789706
0.228867	77.646893	128.002631
0.229473	75.411310	126.394320
0.230078	72.591923	123.676839
0.230684	69.346074	120.018284
0.231289	65.502450	115.564792
0.231895	61.127875	110.296300
0.232500	56.301931	103.863328
0.233105	51.046487	96.800804
0.233711	45.361544	89.189253
0.234316	39.359488	80.680822
0.234922	33.064012	71.562904
0.235527	26.561988	61.961841
0.236133	19.829723	51.855131
0.236738	12.991753	41.407617
0.237344	6.028640	30.521966
0.237949	-0.985504	19.455204
0.238555	-7.955907	8.215194
0.239160	-14.877711	-3.041898
0.239766	-21.674371	-14.487692
0.240371	-28.222565	-25.581567
0.240977	-34.689355	-36.366630
0.241582	-40.818984	-47.169859
0.242187	-46.533695	-57.508923
0.242793	-51.965312	-67.382195
0.243398	-56.946775	-76.744397
0.244004	-61.631173	-85.629962
0.244609	-65.771255	-93.753667
0.245215	-69.407723	-101.260835
0.245820	-72.505343	-107.903115
0.246426	-75.058647	-113.812004
0.247031	-77.067027	-118.790393
0.247637	-78.419919	-122.901455
0.248242	-79.151344	-125.929645
0.248848	-79.333592	-128.297104
0.249453	-78.845166	-129.463753
0.250059	-77.887753	-129.499271
0.250664	-76.267563	-128.752051
0.251270	-74.039269	-127.035020
0.251875	-71.252687	-124.263042
0.252480	-67.912069	-120.512576
0.253086	-64.006481	-115.891800
0.253691	-59.549286	-110.350014
0.254297	-54.713622	-103.957711
0.254902	-49.473973	-96.778061
0.255508	-43.808470	-88.869087
0.256113	-37.893286	-80.449314
0.256719	-31.555893	-71.232706
0.257324	-25.050223	-61.250171
0.257930	-18.338613	-51.180605
0.258535	-11.391294	-40.653381
0.259141	-4.450051	-29.684495
0.259746	2.514278	-18.471325
0.260352	9.527814	-7.243786
0.260957	16.476955	4.066446
0.261562	23.231090	15.334924
0.262168	29.796902	26.472721
0.262773	36.185324	37.380062
0.263379	42.325889	48.032546
0.263984	48.120181	58.283494
0.264590	53.568201	68.238103
0.265195	58.624386	77.373645
0.265801	63.293597	85.962329
0.266406	67.399051	94.222952
0.267012	70.945610	101.623296
0.267617	74.030472	108.071452
0.268223	76.519382	113.713283
0.268828	78.518042	118.587560
0.269434	79.788922	122.564957
0.270039	80.579882	125.595587
0.270645	80.732970	127.630106
0.271250	80.245759	128.728974
0.271855	79.154090	128.820343
0.272461	77.407540	127.816369
0.273066	75.119712	125.887860
0.273672	72.195836	123.247649
0.274277	68.777459	119.309293
0.274883	64.811120	114.516354
0.275488	60.355141	109.095489
0.276094	55.489709	102.721351
0.276699	50.158329	95.532483
0.277305	44.521985	87.680445
0.277910	38.429413	79.027234
0.278516	32.155807	69.873255
0.279121	25.605183	60.151542
0.279727	18.792728	49.917133
0.280332	11.918916	39.340021
0.280938	4.910848	28.551975
0.281543	-2.022498	17.292173
0.282148	-8.973462	6.014747
0.282754	-15.769514	-5.011347
0.283359	-22.560707	-16.311818
0.283965	-29.194558	-27.568367
0.284570	-35.558073	-38.457543
0.285176	-41.654898	-49.096470
0.285781	-47.399376	-59.377785
0.286387	-52.800618	-69.212286
0.286992	-57.736519	-78.486914
0.287598	-62.267221	-87.183777
0.288203	-66.311319	-95.257324
0.288809	-69.836615	-102.603444
0.289414	-72.860728	-109.171978
0.290020	-75.331412	-114.722440
0.290625	-77.229228	-119.701100
0.291230	-78.514081	-123.741398
0.291836	-79.241861	-126.474063
0.292441	-79.271628	-128.495025
0.293047	-78.732172	-129.547802
0.293652	-77.509283	-129.519063
0.294258	-75.811333	-128.504515
0.294863	-73.468223	-126.573294
0.295469	-70.575937	-123.643251
0.296074	-67.169710	-119.793283
0.296680	-63.194259	-114.953981
0.297285	-58.742532	-109.216443
0.297891	-53.805416	-102.860470
0.298496	-48.501373	-95.542276
0.299102	-42.857132	-87.335607
0.299707	-36.736615	-78.755599
0.300312	-30.376744	-69.480970
0.300918	-23.818830	-59.497080
0.301523	-17.131519	-49.205191
0.302129	-10.241305	-38.610186
0.302734	-3.279407	-27.626930
0.303340	3.621742	-16.487507
0.303945	10.587286	-5.203845
0.304551	17.525492	6.119672
0.305156	24.310002	17.317658
0.305762	30.852729	28.489346
0.306367	37.181010	39.467450
0.306973	43.245637	49.883784
0.307578	48.973105	60.020589
0.308184	54.247381	69.990381
0.308789	59.203937	79.093659
0.309395	63.746788	87.616731
0.310000	67.821261	95.549293
0.310605	71.303425	102.776118
0.311211	74.296555	109.150799
0.311816	76.786680	114.682011
0.312422	78.556314	119.318241
0.313027	79.779810	123.150044
0.313633	80.371511	126.047010
0.314238	80.440158	127.750756
0.314844	79.846634	128.615102
0.315449	78.572109	128.685323
0.316055	76.762380	127.557987
0.316660	74.478804	125.328259
0.317266	71.522123	122.546792
0.317871	67.928787	118.613588
0.318477	63.979459	113.745275
0.319082	59.429318	107.938872
0.319688	54.438742	101.415073
0.320293	49.064229	94.123449
0.320898	43.276012	86.067796
0.321504	37.225357	77.338941
0.322109	30.908618	68.043978
0.322715	24.348882	58.352089
0.323320	17.495117	47.982930
0.323926	10.621306	37.195697
0.324531	3.649687	26.574122
0.325137	-3.418523	15.375864
0.325742	-10.323317	3.963418
0.326348	-17.138809	-7.281201
0.326953	-23.841307	-18.459396
0.327559	-30.382211	-29.511517
0.328164	-36.656425	-40.429974
0.328770	-42.614741	-51.048567
0.329375	-48.354359	-61.204622
0.329980	-53.642607	-70.893800
0.330586	-58.594911	-80.183341
0.331191	-62.991356	-88.825436
0.331797	-66.929749	-96.573634
0.332402	-70.431353	-103.828384
0.333008	-73.235553	-110.345405
0.333613	-75.527633	-115.758949
0.334219	-77.390822	-120.309504
0.334824	-78.500109	-124.021741
0.335430	-79.101529	-126.893221
0.336035	-79.033490	-128.707045
0.336641	-78.428424	-129.554851
0.337246	-77.173946	-129.311924
0.337852	-75.337487	-128.191095
0.338457	-72.823671	-126.073070
0.339062	-69.840260	-122.810899
0.339668	-66.262719	-118.858445
0.340273	-62.190069	-113.970883
0.340879	-57.672732	-107.922907
0.341484	-52.721644	-101.211761
0.342090	-47.310074	-93.859677
0.342695	-41.601439	-85.722416
0.343301	-35.455407	-76.906529
0.343906	-29.034786	-67.461092
0.344512	-22.472620	-57.512990
0.345117	-15.681428	-47.124853
0.345723	-8.748689	-36.447968
0.346328	-1.792865	-25.432719
0.346934	5.115574	-14.301158
0.347539	12.053173	-3.081482
0.348145	18.922732	8.331506
0.348750	25.618547	19.520816
0.349355	32.178891	30.396707
0.349961	38.449460	41.347428
0.350566	44.484321	52.029464
0.351172	50.163796	62.115569
0.351777	55.455082	71.682741
0.352383	60.327804	80.767040
0.352988	64.751586	89.190880
0.353594	68.634697	96.973781
0.354199	72.085879	104.033323
0.354805	74.940501	110.275152
0.355410	77.237441	115.655077
0.356016	78.971841	120.152220
0.356621	80.036173	123.618276
0.357227	80.582919	126.411943
0.357832	80.418288	128.194045
0.358438	79.685041	128.787266
0.359043	78.333363	128.442124
0.359648	76.427650	127.216912
0.360254	73.908366	124.958987
0.360859	70.793736	121.758904
0.361465	67.164558	117.644589
0.362070	63.003214	112.598147
0.362676	58.386248	106.745110
0.363281	53.310623	100.011732
0.363887	47.807929	92.518392
0.364492	41.965644	84.400109
0.365098	35.850594	75.615674
0.365703	29.476751	66.007562
0.366309	22.796731	56.199360
0.366914	15.979416	46.008872
0.367520	9.115324	35.245770
0.368125	2.103004	24.256278
0.368730	-4.877120	13.092453
0.369336	-11.803176	1.873048
0.369941	-18.559741	-9.435828
0.370547	-25.345466	-20.675839
0.371152	-31.777021	-31.719013
0.371758	-38.076750	-42.523327
0.372363	-44.022916	-53.005544
0.372969	-49.601547	-63.277640
0.373574	-54.828438	-72.816073
0.374180	-59.704805	-81.758032
0.374785	-64.025921	-90.354307
0.375391	-67.853750	-98.132600
0.375996	-71.156703	-105.089385
0.376602	-73.961510	-111.309795
0.377207	-76.246908	-116.697040
0.377812	-77.836116	-121.178458
0.378418	-78.935075	-124.719887
0.379023	-79.333592	-127.365792
0.379629	-79.198728	-128.996606
0.380234	-78.395619	-129.664386
0.380840	-77.079177	-129.280202
0.381445	-75.014907	-127.811791
0.382051	-72.421509	-125.685633
0.382656	-69.325104	-122.346192
0.383262	-65.657046	-117.938249
0.383867	-61.524861	-112.786611
0.384473	-56.856258	-106.837054
0.385078	-51.811616	-99.989803
0.385684	-46.273687	-92.409703
0.386289	-40.483039	-84.146911
0.386895	-34.244060	-75.222033
0.387500	-27.851993	-65.649980
0.388105	-21.133092	-55.565231
0.388711	-14.347975	-45.156217
0.389316	-7.435283	-34.495600
0.389922	-0.436328	-23.405521
0.390527	6.481224	-12.022899
0.391133	13.463777	-0.874528
0.391738	20.340626	10.390697
0.392344	27.065602	21.723161
0.392949	33.584636	32.806462
0.393555	39.795063	43.561431
0.394160	45.765529	54.002980
0.394766	51.287663	63.985515
0.395371	56.472637	73.493853
0.395977	61.293721	82.429847
0.396582	65.669512	90.737374
0.397187	69.463321	98.411284
0.397793	72.775387	105.422565
0.398398	75.546174	111.268824
0.399004	77.784187	116.479295
0.399609	79.329048	121.068892
0.400215	80.324126	124.374985
0.400820	80.665538	126.769828
0.401426	80.470532	128.269689
0.402031	79.599991	128.775065
0.402637	78.135320	128.316865
0.403242	76.076517	126.878820
0.403848	73.580318	124.442224
0.404453	70.332647	121.123117
0.405059	66.578932	116.848025
0.405664	62.325249	111.541033
0.406270	57.548512	105.391114
0.406875	52.426109	98.742598
0.407480	46.838973	91.078720
0.408086	40.947482	82.640782
0.408691	34.813600	73.834927
0.409297	28.314613	64.431515
0.409902	21.638844	54.400448
0.410508	14.817277	43.993603
0.411113	7.880286	33.206371
0.411719	0.764083	22.143404
0.412324	-6.193563	10.934844
0.412930	-13.176116	-0.378913
0.413535	-19.960018	-11.671521
0.414141	-26.523400	-22.715509
0.414746	-33.001125	-33.841105
0.415352	-39.136222	-44.730823
0.415957	-45.060518	-54.955472
0.416563	-50.615457	-64.957528
0.417168	-55.821086	-74.676259
0.417773	-60.616656	-83.626352
0.418379	-64.821132	-91.928457
0.418984	-68.536575	-99.533229
0.419590	-71.738684	-106.418980
0.420195	-74.448721	-112.488645
0.420801	-76.576778	-117.690712
0.421406	-78.035982	-121.952790
0.422012	-78.984890	-125.357030
0.422617	-79.341490	-127.870897
0.423223	-79.114287	-129.223266
0.423828	-78.270475	-129.668995
0.424434	-76.752344	-129.293216
0.425039	-74.577510	-127.556934
0.425645	-71.916072	-124.935702
0.426250	-68.746768	-121.501096
0.426855	-64.968146	-117.087731
0.427461	-60.710817	-111.741155
0.428066	-56.003942	-105.579307
0.428672	-50.882755	-98.628758
0.429277	-45.392818	-90.984130
0.429883	-39.466092	-82.582522
0.430488	-33.216178	-73.414987
0.431094	-26.718406	-63.758073
0.431699	-20.018338	-53.843861
0.432305	-13.146349	-43.153962
0.432910	-6.244592	-32.219238
0.433516	0.673567	-21.272584
0.434121	7.677382	-10.075140
0.434727	14.614981	1.266000
0.435332	21.376406	12.542342
0.435937	28.058857	23.741684
0.436543	34.505599	34.727379
0.437148	40.782243	45.501598
0.437754	46.656725	55.908443
0.438359	52.194046	65.819943
0.438965	57.338926	75.171572
0.439570	62.025146	84.067710
0.440176	66.191958	92.301492
0.440781	69.970580	99.598809
0.441387	73.162969	106.418134
0.441992	75.854781	112.510303
0.442598	77.992558	117.572198
0.443203	79.485175	121.686242
0.443809	80.407353	125.004265
0.444414	80.605396	127.216641
0.445020	80.282209	128.527257
0.445625	79.231849	128.810582
0.446230	77.714933	128.136567
0.446836	75.549819	126.516326
0.447441	72.793004	123.947692
0.448047	69.598185	120.255518
0.448652	65.718111	115.830765
0.449258	61.406108	110.676417
0.449863	56.623903	104.291704
0.450469	51.384862	97.261174
0.451074	45.766744	89.620612
0.451680	39.827260	81.167762
0.452285	33.588281	72.085361
0.452891	27.093547	62.525780
0.453496	20.440256	52.452147
0.454102	13.587099	42.003278
0.454707	6.649500	31.151518
0.455313	-0.337913	20.043002
0.455918	-7.318037	8.857759
0.456523	-14.200353	-2.361918
0.457129	-20.974536	-13.840518
0.457734	-27.639977	-24.860375
0.458340	-34.081859	-35.684210
0.458945	-40.201161	-46.475781
0.459551	-45.959611	-56.884794
0.460156	-51.445903	-66.795753
0.460762	-56.528818	-76.142500
0.461367	-61.174944	-85.068463
0.461973	-65.340541	-93.325561
0.462578	-69.027431	-100.843032
0.463184	-72.193090	-107.552280
0.463789	-74.792564	-113.431345
0.464395	-76.853188	-118.578102
0.465000	-78.202436	-122.693502
0.465605	-79.079052	-125.715185
0.466211	-79.239431	-128.161000
0.466816	-78.874933	-129.453180
0.467422	-77.839761	-129.585759
0.468027	-76.308265	-128.854536
0.468633	-74.042914	-127.106868
0.469238	-71.316474	-124.463403
0.469844	-67.997726	-120.742761
0.470449	-64.166859	-116.123341
0.471055	-59.823874	-110.644727
0.471660	-54.920170	-104.391510
0.472266	-49.726691	-97.224061
0.472871	-44.160817	-89.282010
0.473477	-38.203716	-80.966891
0.474082	-31.892445	-71.780106
0.474687	-25.427478	-61.797300
0.475293	-18.743205	-51.667002
0.475898	-11.788596	-41.141405
0.476504	-4.843100	-30.274733
0.477109	2.060479	-19.055870
0.477715	9.003545	-7.825077
0.478320	15.987314	3.456687
0.478926	22.734159	14.681243
0.479531	29.276278	25.847237
0.480137	35.692646	36.839440
0.480742	41.796153	47.345787
0.481348	47.643297	57.691900
0.481953	53.111364	67.701819
0.482559	58.133530	76.813231
0.483164	62.828255	85.482438
0.483770	66.928242	93.666333
0.484375	70.564103	101.075896
0.484980	73.661723	107.655818
0.485586	76.219886	113.363532
0.486191	78.182704	118.262753
0.486797	79.559897	122.295730
0.487402	80.304686	125.343170
0.488008	80.519132	127.421069
0.488613	80.126082	128.569553
0.489219	79.024693	128.765305
0.489824	77.327351	127.802541
0.490430	75.069897	126.037792
0.491035	72.147844	123.364232
0.491641	68.759841	119.505588
0.492246	64.820840	114.841161
0.492852	60.435938	109.384779
0.493457	55.583871	103.050225
0.494063	50.268285	95.938899
0.494668	44.548715	88.049175
0.495273	38.572782	79.436361
0.495879	32.266978	70.300277
0.496484	25.668362	60.627908
0.497090	18.939742	50.382925
0.497695	12.068360	39.875764
0.498301	5.102209	29.014785
0.498906	-1.878522	17.795109
0.499512	-8.842851	6.651889
0.500117	-15.737317	-4.466657
0.500723	-22.422805	-15.857956
0.501328	-29.083386	-27.014731
0.501934	-35.401339	-37.890893
0.502539	-41.438022	-48.597330
0.503145	-47.280914	-58.877560
0.503750	-52.654212	-68.738631
0.504355	-57.627170	-78.017598
0.504961	-62.097122	-86.709851
0.505566	-66.129677	-94.844130
0.506172	-69.681704	-102.282432
0.506777	-72.728901	-108.780203
0.507383	-75.219633	-114.365640
0.507988	-77.130814	-119.474169
0.508594	-78.430247	-123.362366
0.509199	-79.168354	-126.329282
0.509805	-79.159849	-128.370850
0.510410	-78.700582	-129.463211
0.511016	-77.532976	-129.462940
0.511621	-75.842923	-128.538405
0.512227	-73.515000	-126.634840
0.512832	-70.672529	-123.789930
0.513437	-67.224384	-119.932912
0.514043	-63.264729	-115.102828
0.514648	-58.870714	-109.447170
0.515254	-53.917803	-103.181481
0.515859	-48.553010	-95.799302
0.516465	-42.882039	-87.633030
0.517070	-36.895171	-79.126768
0.517676	-30.489131	-69.818791
0.518281	-24.021733	-59.983206
0.518887	-17.257878	-49.670983
0.519492	-10.370702	-39.115291
0.520098	-3.371138	-28.194936
0.520703	3.552488	-16.975802
0.521309	10.490694	-5.750703
0.521914	17.389413	5.547870
0.522520	24.199438	16.733927
0.523125	30.730622	27.938963
0.523730	37.088670	38.964514
0.524336	43.164233	49.259656
0.524941	48.888663	59.610107
0.525547	54.266213	69.551702
0.526152	59.132252	78.663656
0.526758	63.718844	87.178322
0.527363	67.801213	95.160229
0.527969	71.283985	102.440737
0.528574	74.241273	108.841446
0.529180	76.680975	114.408175
0.529785	78.593371	119.143636
0.530391	79.728173	122.946429
0.530996	80.373333	125.892198
0.531602	80.404923	127.605705
0.532207	79.878832	128.640316
0.532813	78.601876	128.739006
0.533418	76.831634	127.581575
0.534023	74.432634	125.521299
0.534629	71.513011	122.640059
0.535234	67.900235	118.756471
0.535840	63.905345	113.887887
0.536445	59.321791	108.185866
0.537051	54.376170	101.666948
0.537656	48.987685	94.427651
0.538262	43.238955	86.390163
0.538867	37.276994	77.611150
0.539473	30.928058	68.422739
0.540078	24.359209	58.747388
0.540684	17.478108	48.275202
0.541289	10.679625	37.801118
0.541895	3.704969	27.021206
0.542500	-3.316464	15.806410
0.543105	-10.305092	4.514343
0.543711	-17.065910	-6.719702
0.544316	-23.793315	-17.958900
0.544922	-30.335434	-29.073651
0.545527	-36.605396	-39.943577
0.546133	-42.640863	-50.581420
0.546738	-48.226785	-60.744524
0.547344	-53.671159	-70.493078
0.547949	-58.568788	-79.822474
0.548555	-62.971308	-88.318704
0.549160	-66.953441	-96.156915
0.549766	-70.470233	-103.573527
0.550371	-73.347939	-109.979116
0.550977	-75.642450	-115.445258
0.551582	-77.433346	-120.159572
0.552187	-78.605205	-123.947995
0.552793	-79.233963	-126.783958
0.553398	-79.134334	-128.656616
0.554004	-78.551138	-129.578710
0.554609	-77.323390	-129.425796
0.555215	-75.468706	-128.284904
0.555820	-72.999237	-126.197516
0.556426	-69.991526	-123.018309
0.557031	-66.406695	-119.183524
0.557637	-62.379000	-114.132473
0.558242	-57.859234	-108.151465
0.558848	-52.882023	-101.593234
0.559453	-47.497183	-94.268261
0.560059	-41.793407	-86.115004
0.560664	-35.644945	-77.278512
0.561270	-29.359189	-67.913870
0.561875	-22.691318	-57.980680
0.562480	-15.892836	-47.636736
0.563086	-9.026314	-36.962020
0.563691	-2.026751	-25.923455
0.564297	4.896268	-14.834460
0.564902	11.867886	-3.538327
0.565508	18.691276	7.917499
0.566113	25.377372	18.929765
0.566719	31.934071	29.994087
0.567324	38.222864	41.012589
0.567930	44.229780	51.508634
0.568535	49.922620	61.651674
0.569141	55.207224	71.283103
0.569746	60.091488	80.400480
0.570352	64.518915	88.814559
0.570957	68.461561	96.627555
0.571562	71.905453	103.718276
0.572168	74.829329	110.033580
0.572773	77.172439	115.464747
0.573379	78.867959	119.820363
0.573984	80.093278	123.600382
0.574590	80.482682	126.414655
0.575195	80.442588	128.039775
0.575801	79.815652	128.776963
0.576406	78.464582	128.495536
0.577012	76.530316	127.320211
0.577617	74.094867	125.127626
0.578223	71.005752	121.947607
0.578828	67.376574	117.868809
0.579434	63.339159	112.894486
0.580039	58.683921	107.105977
0.580645	53.659325	100.342775
0.581250	48.169388	92.958427
0.581855	42.400003	84.929344
0.582461	36.216307	75.941836
0.583066	29.919008	66.584515
0.583672	23.201323	56.847347
0.584277	16.353026	46.541361
0.584883	9.498654	35.785850
0.585488	2.465071	24.791207
0.586094	-4.557577	13.665068
0.586699	-11.427136	2.409875
0.587305	-18.234731	-8.884903
0.587910	-25.000409	-20.091566
0.588516	-31.484208	-31.188422
0.589121	-37.718327	-42.009546
0.589727	-43.734963	-52.717881
0.590332	-49.360979	-62.788261
0.590938	-54.600628	-72.210381
0.591543	-59.464844	-81.476605
0.592148	-63.786567	-90.042514
0.592754	-67.653276	-97.781222
0.593359	-71.046746	-104.847270
0.593965	-73.827253	-111.099674
0.594570	-76.201953	-116.556056
0.595176	-77.873173	-121.053470
0.595781	-78.938113	-124.663764
0.596387	-79.402847	-127.327834
0.596992	-79.284993	-129.044595
0.597598	-78.525623	-129.650287
0.598203	-77.182451	-129.246854
0.598809	-75.272485	-128.148257
0.599414	-72.708246	-125.883282
0.600020	-69.651936	-122.367882
0.600625	-66.030656	-118.219134
0.601230	-61.880246	-113.139073
0.601836	-57.283935	-107.156709
0.602441	-52.289107	-100.379409
0.603047	-46.825293	-92.883357
0.603652	-40.985438	-84.640900
0.604258	-34.764077	-75.740965
0.604863	-28.416356	-66.137733
0.605469	-21.751523	-56.150860
0.606074	-14.888646	-45.871986
0.606680	-8.045816	-35.047609
0.607285	-1.086955	-23.891376
0.607891	5.874943	-12.852811
0.608496	12.800392	-1.558575
0.609102	19.706401	9.823504
0.609707	26.461144	21.127501
0.610313	32.934008	32.129735
0.610918	39.214905	42.919137
0.611523	45.162893	53.409488
0.612129	50.722692	63.446790
0.612734	56.047390	73.015047
0.613340	60.830810	81.961344
0.613945	65.180478	90.298966
0.614551	69.049009	98.110336
0.615156	72.395702	104.840460
0.615762	75.289203	111.002579
0.616367	77.478617	116.508035
0.616973	79.078153	120.814848
0.617578	80.092670	124.224782
0.618184	80.564087	126.758170
0.618789	80.392773	128.294090
0.619395	79.592094	128.849624
0.620000	78.099477	128.452156
0.620605	76.179184	127.039326
0.621211	73.614945	124.661834
0.621816	70.402509	121.371467
0.622422	66.751461	117.021273
0.623027	62.506283	111.850928
0.623633	57.824922	105.977828
0.624238	52.743830	99.013452
0.624844	47.199826	91.432267
0.625449	41.356934	83.311002
0.626055	35.227911	74.424352
0.626660	28.755047	64.911947
0.627266	22.116336	54.970894
0.627871	15.326966	44.597127
0.628477	8.424602	33.827246
0.629082	1.411674	22.781903
0.629687	-5.629199	11.599099
0.630293	-12.541283	0.360715
0.630898	-19.313643	-10.869264
0.631504	-25.940204	-22.206337
0.632109	-32.391199	-33.197455
0.632715	-38.594336	-43.778091
0.633320	-44.540502	-54.395600
0.633926	-50.091188	-64.495803
0.634531	-55.285883	-74.048334
0.635137	-60.074162	-83.014966
0.635742	-64.315696	-91.397595
0.636348	-68.110720	-99.090212
0.636953	-71.314652	-105.981656
0.637559	-74.069644	-112.021768
0.638164	-76.277890	-117.367531
0.638770	-77.814246	-121.825632
0.639375	-78.757687	-125.248851
0.639980	-79.216346	-127.590825
0.640586	-79.014657	-129.225435
0.641191	-78.099769	-129.790730
0.641797	-76.638135	-129.057338
0.642402	-74.591482	-127.567779
0.643008	-71.953129	-125.146908
0.643613	-68.709711	-121.675429
0.644219	-65.011886	-117.324965
0.644824	-60.806802	-112.015804
0.645430	-56.124226	-105.973793
0.646035	-51.052246	-99.030564
0.646641	-45.561094	-91.382954
0.647246	-39.656845	-82.910312
0.647852	-33.457354	-74.005768
0.648457	-26.955329	-64.392504
0.649062	-20.342741	-54.084349
0.649668	-13.549118	-43.733898
0.650273	-6.615165	-33.030714
0.650879	0.312107	-21.830016
0.651484	7.260641	-10.618202
0.652090	14.124732	0.640245
0.652695	20.962094	11.903030
0.653301	27.677350	23.154970
0.653906	34.183627	34.172387
0.654512	40.366109	44.871776
0.655117	46.240590	55.204061
0.655723	51.740247	65.210998
0.656328	56.860827	74.687885
0.656934	61.578029	83.413487
0.657539	65.755169	91.609311
0.658145	69.527716	99.387061
0.658750	72.780854	106.182527
0.659355	75.563184	112.055627
0.659961	77.652361	117.159005
0.660566	79.185072	121.451991
0.661172	80.067763	124.714433
0.661777	80.311369	126.984016
0.662383	79.952339	128.301953
0.662988	79.113387	128.727889
0.663594	77.479224	128.154732
0.664199	75.406450	126.430651
0.664805	72.735292	123.918953
0.665410	69.486406	120.600660
0.666016	65.671334	115.980426
0.666621	61.404893	110.615142
0.667227	56.554649	104.601057
0.667832	51.308318	97.654846
0.668438	45.757631	89.952740
0.669043	39.819363	81.524562
0.669648	33.610151	72.558744
0.670254	27.153081	63.012177
0.670859	20.472453	52.933664
0.671465	13.616259	42.458225
0.672070	6.703567	31.662859
0.672676	-0.309361	20.683941
0.673281	-7.261540	9.279358
0.673887	-14.147501	-1.931914
0.674492	-20.997013	-12.962888
0.675098	-27.604742	-24.267697
0.675703	-33.972510	-35.358860
0.676309	-40.052933	-45.991823
0.676914	-45.810168	-56.359084
0.677520	-51.346882	-66.295799
0.678125	-56.456526	-75.792479
0.678730	-61.068025	-84.673163
0.679336	-65.253669	-92.904776
0.679941	-68.888922	-100.452884
0.680547	-72.072806	-107.306099
0.681152	-74.615782	-113.153171
0.681758	-76.663042	-118.168704
0.682363	-78.064534	-122.502359
0.682969	-78.860353	-125.678583
0.683574	-79.106389	-127.800133
0.684180	-78.782594	-129.167685
0.684785	-77.774151	-129.528281
0.685391	-76.191018	-128.785129
0.685996	-74.063569	-127.131811
0.686602	-71.314044	-124.463403
0.687207	-67.932117	-120.841721
0.687813	-64.117652	-116.293607
0.688418	-59.760695	-110.848613
0.689023	-54.934143	-104.610579
0.689629	-49.781973	-97.697445
0.690234	-44.187547	-89.788470
0.690840	-38.283298	-81.126041
0.691445	-32.015767	-72.157512
0.692051	-25.487013	-62.446372
0.692656	-18.754140	-52.225248
0.693262	-11.811074	-41.587405
0.693867	-4.896560	-30.732391
0.694473	2.067161	-19.591612
0.695078	8.939151	-8.378171
0.695684	15.858525	2.935043
0.696289	22.632099	14.149568
0.696895	29.236791	25.269199
0.697500	35.665916	36.309120
0.698105	41.779143	47.035621
0.698711	47.679140	57.175137
0.699316	53.095570	67.086637
0.699922	58.125632	76.619919
0.700527	62.724373	85.304038
0.701133	66.827398	93.341526
0.701738	70.443211	100.728585
0.702344	73.593683	107.379813
0.702949	76.148202	113.115995
0.703555	78.154152	118.091944
0.704160	79.500969	122.111366
0.704766	80.301649	125.246650
0.705371	80.482075	127.405073
0.705977	80.030098	128.411216
0.706582	78.913521	128.672309
0.707187	77.298191	128.022966
0.707793	75.020690	126.012848
0.708398	72.200696	123.314617
0.709004	68.772599	119.766138
0.709609	64.893740	115.138856
0.710215	60.511267	109.645059
0.710820	55.595414	103.319452
0.711426	50.290155	96.210024
0.712031	44.642877	88.352021
0.712637	38.683953	79.828136
0.713242	32.315578	70.673615
0.713848	25.805656	61.101834
0.714453	19.056988	50.966113
0.715059	12.209906	40.219821
0.715664	5.293570	29.514468
0.716270	-1.717536	18.545039
0.716875	-8.707987	7.175431
0.717480	-15.564788	-4.107960
0.718086	-22.339578	-15.317062
0.718691	-28.941232	-26.480345
0.719297	-35.274373	-37.429710
0.719902	-41.379095	-48.090869
0.720508	-47.105348	-58.370828
0.721113	-52.466496	-68.215632
0.721719	-57.520859	-77.604404
0.722324	-62.092870	-86.442251
0.722930	-66.126033	-94.468351
0.723535	-69.809885	-101.815013
0.724141	-72.823063	-108.670940
0.724746	-75.257298	-114.329581
0.725352	-77.272360	-119.107338
0.725957	-78.553568	-123.149805
0.726562	-79.252188	-126.275600
0.727168	-79.307470	-128.317168
0.727773	-78.884653	-129.439623
0.728379	-77.720084	-129.520690
0.728984	-76.062229	-128.712196
0.729590	-73.750101	-126.844961
0.730195	-70.919780	-123.894042
0.730801	-67.481962	-120.067932
0.731406	-63.489502	-115.547201
0.732012	-59.077870	-109.833522
0.732617	-54.196036	-103.209407
0.733223	-48.918115	-96.172640
0.733828	-43.247144	-88.277222
0.734434	-37.246303	-79.552705
0.735039	-30.966015	-70.262351
0.735645	-24.420858	-60.467163
0.736250	-17.587748	-50.215673
0.736855	-10.761321	-39.606569
0.737461	-3.789703	-28.617348
0.738066	3.192243	-17.511273
0.738672	10.153534	-6.295121
0.739277	17.020056	5.073673
0.739883	23.749891	16.340254
0.740488	30.319348	27.260609
0.741094	36.736930	38.279924
0.741699	42.805203	49.083967
0.742305	48.531456	59.268761
0.742910	54.034758	69.002132
0.743516	58.982809	78.185663
0.744121	63.503790	86.825861
0.744727	67.603170	94.841116
0.745332	71.158841	102.111863
0.745938	74.229731	108.550529
0.746543	76.673078	114.207000
0.747148	78.510752	118.966321
0.747754	79.788315	122.739290
0.748359	80.469317	125.690752
0.748965	80.572592	127.822062
0.749570	79.926216	128.595581
0.750176	78.809032	128.574704
0.750781	77.086175	127.740725
0.751387	74.709652	125.718407
0.751992	71.764514	122.832015
0.752598	68.228283	118.926737
0.753203	64.314797	114.203476
0.753809	59.807180	108.532635
0.754414	54.899831	102.122979
0.755020	49.506486	94.819426
0.755625	43.788131	86.752386
0.756230	37.657286	78.282455
0.756836	31.382465	68.922422
0.757441	24.786279	59.114491
0.758047	17.952562	49.135209
0.758652	11.070852	38.473778
0.759258	4.155731	27.481305
0.759863	-2.868740	16.386888
0.760469	-9.822133	5.159620
0.761074	-16.666785	-6.122144
0.761680	-23.439753	-17.423971
0.762285	-29.928412	-28.527606
0.762891	-36.319265	-39.433049
0.763496	-42.371743	-50.077128
0.764102	-48.037246	-60.368203
0.764707	-53.390497	-70.156613
0.765312	-58.348267	-79.229254
0.765918	-62.837052	-88.007724
0.766523	-66.760865	-96.107570
0.767129	-70.260039	-103.230284
0.767734	-73.276255	-109.658376
0.768340	-75.647310	-115.258725
0.768945	-77.402972	-120.008284
0.769551	-78.744929	-123.848222
0.770156	-79.267983	-126.686353
0.770762	-79.312330	-128.637366
0.771367	-78.666562	-129.537499
0.771973	-77.491666	-129.439623
0.772578	-75.701377	-128.331808
0.773184	-73.309059	-126.488161
0.773789	-70.339014	-123.340948
0.774395	-66.895729	-119.185693
0.775000	-62.890511	-114.410647
0.775605	-58.351912	-108.716489
0.776211	-53.383814	-102.090476
0.776816	-48.023274	-94.680100
0.777422	-42.312816	-86.669725
0.778027	-36.155241	-77.874173
0.778633	-29.877990	-68.515496
0.779238	-23.321291	-58.562784
0.779844	-16.521594	-48.261678
0.780449	-9.607687	-37.650676
0.781055	-2.662191	-26.636512
0.781660	4.283305	-15.367762
0.782266	11.293196	-4.300187
0.782871	18.178550	7.027939
0.783477	24.898058	18.479969
0.784082	31.398260	29.506063
0.784687	37.713176	40.360534
0.785293	43.785701	50.896706
0.785898	49.455456	61.086380
0.786504	54.814174	70.800501
0.787109	59.695401	79.848741
0.787715	64.207877	88.376422
0.788320	68.149916	96.261808
0.788926	71.581050	103.429528
0.789531	74.511001	109.593816
0.790137	76.924581	115.035286
0.790742	78.691178	119.852356
0.791348	79.787707	123.475393
0.791953	80.358146	126.071953
0.792559	80.386090	127.949762
0.793164	79.646768	128.789164
0.793770	78.433600	128.633267
0.794375	76.548541	127.459840
0.794980	74.125242	125.229027
0.795586	71.045847	122.197312
0.796191	67.470736	118.158641
0.796797	63.432713	113.155037
0.797402	58.813317	107.327757
0.798008	53.823957	100.840831
0.798613	48.406919	93.286216
0.799219	42.610197	85.153835
0.799824	36.547392	76.605549
0.800430	30.170511	67.263139
0.801035	23.511145	57.341065
0.801641	16.710841	47.035079
0.802246	9.875909	36.361718
0.802852	2.948030	25.458986
0.803457	-4.102563	14.271845
0.804063	-10.965440	3.049186
0.804668	-17.853224	-8.293852
0.805273	-24.503477	-19.461201
0.805879	-31.074756	-30.601167
0.806484	-37.270603	-41.502272
0.807090	-43.253826	-51.848656
0.807695	-48.920545	-62.157083
0.808301	-54.177203	-71.865239
0.808906	-59.057822	-80.885553
0.809512	-63.364965	-89.420012
0.810117	-67.305789	-97.293469
0.810723	-70.686501	-104.381750
0.811328	-73.479766	-110.691903
0.811934	-75.824091	-116.171872
0.812539	-77.460684	-120.750624
0.813145	-78.585765	-124.424361
0.813750	-79.199943	-127.176275
0.814355	-79.015265	-128.829322
0.814961	-78.273513	-129.706681
0.815566	-76.985622	-129.462669
0.816172	-75.062899	-127.931628
0.816777	-72.553943	-125.823906
0.817383	-69.491558	-122.632770
0.817988	-65.865417	-118.402143
0.818594	-61.787907	-113.400437
0.819199	-57.170334	-107.470672
0.819805	-52.238078	-100.753290
0.820410	-46.748748	-93.184034
0.821016	-41.006701	-85.015052
0.821621	-34.875856	-76.179373
0.822227	-28.438833	-66.752373
0.822832	-21.868769	-56.717511
0.823438	-15.116457	-46.228515
0.824043	-8.251757	-35.647337
0.824648	-1.314766	-24.683873
0.825254	5.626478	-13.242959
0.825859	12.554964	-1.950622
0.826465	19.369241	9.207238
0.827070	26.128236	20.470837
0.827676	32.620541	31.561458
0.828281	38.883819	42.328085
0.828887	44.839098	52.786444
0.829492	50.420159	62.855467
0.830098	55.648873	72.387393
0.830703	60.486967	81.541914
0.831309	64.859720	89.753463
0.831914	68.775029	97.459094
0.832520	72.073729	104.649047
0.833125	74.901621	110.732539
0.833730	77.162112	115.893937
0.834336	78.767722	120.453168
0.834941	79.833877	123.999748
0.835547	80.214169	126.516055
0.836152	80.114540	128.075021
0.836758	79.303533	128.706471
0.837363	77.843114	128.368378
0.837969	75.949551	127.008417
0.838574	73.401715	124.560163
0.839180	70.213578	121.289316
0.839785	66.439208	117.256609
0.840391	62.311276	111.946906
0.840996	57.634168	105.949902
0.841602	52.495971	99.439117
0.842207	47.018792	91.903210
0.842812	41.231182	83.604087
0.843418	35.117347	74.727741
0.844023	28.676680	65.351711
0.844629	22.041614	55.408489
0.845234	15.139857	45.008694
0.845840	8.211371	34.177539
0.846445	1.267090	23.320085
0.847051	-5.734904	12.179306
0.847656	-12.645165	0.789363
0.848262	-19.344018	-10.523038
0.848867	-25.971794	-21.540997
0.849473	-32.481716	-32.665238
0.850078	-38.698218	-43.633311
0.850684	-44.606111	-54.001656
0.851289	-50.081469	-63.964941
0.851895	-55.299247	-73.571969
0.852500	-60.060190	-82.633765
0.853105	-64.310836	-91.025070
0.853711	-68.080953	-98.730701
0.854316	-71.358391	-105.666067
0.854922	-74.040484	-111.784806
0.855527	-76.191018	-117.106710
0.856133	-77.805134	-121.442262
0.856738	-78.810539	-125.045508
0.857344	-79.219991	-127.561001
0.857949	-79.030452	-128.905508
0.858555	-78.111311	-129.523943
0.859160	-76.677015	-129.085806
0.859766	-74.592697	-127.635560
0.860371	-71.987757	-125.174292
0.860977	-68.780180	-121.777372
0.861582	-65.027681	-117.441819
0.862187	-60.902179	-112.286115
0.862793	-56.193481	-106.239495
0.863398	-51.099023	-99.244482
0.864004	-45.606049	-91.706948
0.864609	-39.727315	-83.373663
0.865215	-33.478616	-74.228903
0.865820	-26.991172	-64.723276
0.866426	-20.320871	-54.836448
0.867031	-13.547903	-44.122148
0.867637	-6.595725	-33.384531
0.868242	0.315752	-22.358709
0.868848	7.221761	-11.157198
0.869453	14.211604	0.176351
0.870059	21.058079	11.462452
0.870664	27.686462	22.671013
0.871270	34.196384	33.693581
0.871875	40.440830	44.449635
0.872480	46.312882	54.921278
0.873086	51.790062	64.799973
0.873691	56.944661	74.192812
0.874297	61.605974	83.293379
0.874902	65.858443	91.501132
0.875508	69.622485	99.005860
0.876113	72.864081	105.873716
0.876719	75.620288	111.876956
0.877324	77.805450	116.973013
0.877930	79.261009	121.239158
0.878535	80.198374	124.604356
0.879141	80.514880	126.971002
0.879746	80.181972	128.267791
0.880352	79.217877	128.693457
0.880957	77.679698	128.109997
0.881563	75.628186	126.745698
0.882168	73.012917	124.121212
0.882773	69.740947	120.458319
0.883379	65.930127	116.308216
0.883984	61.619339	111.163627
0.884590	56.830452	104.868386
0.885195	51.695292	97.899943
0.885801	45.953852	90.317945
0.886406	40.100025	81.958904
0.887012	33.932124	72.891685
0.887617	27.460474	63.349185
0.888223	20.757368	53.370175
0.888828	13.831312	42.999118
0.889434	7.000632	32.085542
0.890039	-0.047531	20.894605
0.890645	-7.061674	9.992957
0.891250	-14.041797	-1.327577
0.891855	-20.788035	-12.764696
0.892461	-27.367211	-23.899510
0.893066	-33.814561	-34.778112
0.893672	-39.993398	-45.492683
0.894277	-45.771288	-55.909017
0.894883	-51.258795	-65.948488
0.895488	-56.417039	-75.361933
0.896094	-61.175552	-84.243431
0.896699	-65.451105	-92.658866
0.897305	-69.023786	-100.312983
0.897910	-72.242905	-106.947944
0.898516	-74.909203	-112.896959
0.899121	-76.833141	-118.234317
0.899727	-78.276550	-122.347547
0.900332	-79.217561	-125.486085
0.900937	-79.500654	-127.864118
0.901543	-79.203588	-129.311381
0.902148	-78.204258	-129.683635
0.902754	-76.673370	-128.977356
0.903359	-74.507041	-127.312380
0.903965	-71.821910	-124.767334
0.904570	-68.390168	-121.155684
0.905176	-64.551404	-116.580186
0.905781	-60.326273	-111.159321
0.906387	-55.498506	-105.072033
0.906992	-50.263717	-97.886961
0.907598	-44.772565	-90.093757
0.908203	-38.893831	-81.770233
0.908809	-32.542466	-72.556065
0.909414	-25.969364	-62.809950
0.910020	-19.291166	-52.677212
0.910625	-12.444084	-42.062415
0.911230	-5.489475	-31.238038
0.911836	1.538033	-20.171005
0.912441	8.394835	-8.975188
0.913047	15.324536	2.425058
0.913652	22.099933	13.570446
0.914258	28.807291	24.780091
0.914863	35.204827	35.712917
0.915469	41.476003	46.316870
0.916074	47.322540	56.897505
0.916680	52.796682	66.782707
0.917285	57.953711	75.991994
0.917891	62.508105	84.877017
0.918496	66.755106	93.009940
0.919102	70.401294	100.390493
0.919707	73.568168	107.066122
0.920312	76.185866	112.968775
0.920918	78.227659	117.921136
0.921523	79.704480	122.016472
0.922129	80.556189	125.134133
0.922734	80.697128	127.237247
0.923340	80.325341	128.654144
0.923945	79.270121	128.767474
0.924551	77.643248	127.906924
0.925156	75.401590	126.314610
0.925762	72.616830	123.672772
0.926367	69.284110	119.981140
0.926973	65.399784	115.415945
0.927578	60.979646	110.023549
0.928184	56.148842	103.784973
0.928789	50.863023	96.634876
0.929395	45.164716	88.833267
0.930000	39.174202	80.390990
0.930605	32.831342	71.296930
0.931211	26.389459	61.532651
0.931816	19.651119	51.344603
0.932422	12.749970	41.058409
0.933027	5.729144	30.241081
0.933633	-1.109433	18.914582
0.934238	-8.186755	7.740183
0.934844	-15.095194	-3.455905
0.935449	-21.870592	-14.698627
0.936055	-28.489255	-25.992592
0.936660	-34.869781	-36.936805
0.937266	-40.958101	-47.545909
0.937871	-46.743888	-57.842406
0.938477	-52.191300	-67.827653
0.939082	-57.211036	-77.245435
0.939688	-61.841974	-85.908136
0.940293	-65.995421	-94.108027
0.940898	-69.583897	-101.758891
0.941504	-72.713106	-108.168004
0.942109	-75.240895	-113.931570
0.942715	-77.180021	-118.954966
0.943320	-78.548101	-123.022647
0.943926	-79.285600	-126.173657
0.944531	-79.489719	-128.247760
0.945137	-79.014050	-129.423085
0.945742	-77.984345	-129.631579
0.946348	-76.325882	-128.823899
0.946953	-74.079364	-126.953682
0.947559	-71.342596	-124.205835
0.948164	-67.839777	-120.575748
0.948770	-63.926899	-115.704182
0.949375	-59.604568	-110.100580
0.949980	-54.667452	-103.927345
0.950586	-49.422336	-96.658224
0.951191	-43.806040	-88.635107
0.951797	-37.790012	-80.069740
0.952402	-31.520051	-70.849336
0.953008	-24.996764	-61.085869
0.953613	-18.203749	-50.804555
0.954219	-11.312320	-40.221479
0.954824	-4.387478	-29.324983
0.955430	2.643067	-18.214570
0.956035	9.592816	-6.852011
0.956641	16.515835	4.413756
0.957246	23.257212	15.515222
0.957852	29.822416	26.863141
0.958457	36.189577	37.865646
0.959063	42.263317	48.377958
0.959668	48.151771	58.620502
0.960273	53.543294	68.476693
0.960879	58.587329	77.730987
0.961484	63.157518	86.381216
0.962090	67.221663	94.377493
0.962695	70.798596	101.692162
0.963301	73.823924	108.227077
0.963906	76.377835	113.826613
0.964512	78.247706	118.556109
0.965117	79.610319	122.649819
0.965723	80.333846	125.646830
0.966328	80.441373	127.408055
0.966934	79.928646	128.553285
0.967539	78.757395	128.713249
0.968145	77.085567	127.790612
0.968750	74.780729	125.865085
0.969355	71.846526	122.944532
0.969961	68.300575	119.174273
0.970566	64.367041	114.425256
0.971172	59.962699	108.810266
0.971777	55.029228	102.384072
0.972383	49.662612	95.272475
0.972988	43.973417	87.291381
0.973594	37.975614	78.477122
0.974199	31.666773	69.481480
0.974805	25.043857	59.876622
0.975410	18.237477	49.526442
0.976016	11.407405	38.881550
0.976621	4.402982	28.064765
0.977227	-2.470223	17.018066
0.977832	-9.495301	5.740640
0.978437	-16.311400	-5.562272
0.979043	-23.073433	-16.815025
0.979648	-29.642889	-27.921372
0.980254	-36.017947	-38.835491
0.980859	-42.027900	-49.541928
0.981465	-47.726208	-59.661652
0.982070	-53.156003	-69.496695
0.982676	-58.030547	-79.002865
0.983281	-62.574614	-87.518073
0.983887	-66.531232	-95.414576
0.984492	-70.131858	-102.761509
0.985098	-73.049051	-109.278530
0.985703	-75.505156	-115.011459
0.986309	-77.361662	-119.755868
0.986914	-78.575438	-123.648945
0.987520	-79.287423	-126.602305
0.988125	-79.226673	-128.551148
0.988730	-78.667170	-129.435828
0.989336	-77.523256	-129.518521
0.989941	-75.723247	-128.586937
0.990547	-73.301162	-126.369680
0.991152	-70.442288	-123.372940
0.991758	-66.898159	-119.580179
0.992363	-62.924531	-114.686923
0.992969	-58.352520	-108.898142
0.993574	-53.462181	-102.359160
0.994180	-48.122903	-95.038797
0.994785	-42.411230	-87.014866
0.995391	-36.398847	-78.305532
0.995996	-30.004957	-68.953091
0.996602	-23.488960	-59.109914
0.997207	-16.675290	-48.776543
0.997812	-9.785076	-38.077426
0.998418	-2.890610	-27.231088
0.999023	4.137506	-16.167580
0.999629	11.092722	-4.635839
1.000234	17.896064	6.654601
1.000840	24.690902	17.782908
1.001445	31.216011	28.939955
1.002051	37.612939	39.844855
1.002656	43.656304	50.383196
1.003262	49.357042	60.553349
1.003867	54.729125	70.263675
1.004473	59.626754	79.452628
1.005078	64.128903	87.955637
1.005684	68.091596	95.768633
1.006289	71.568293	102.931744
1.006895	74.558993	109.478317
1.007500	76.945843	114.764433
1.008105	78.747675	119.400934
1.008711	79.865467	123.351218
1.009316	80.486935	126.063820
1.009922	80.424363	127.834805
1.010527	79.832055	128.698879
1.011133	78.495564	128.612661
1.011738	76.700415	127.507287
1.012344	74.228516	125.321209
1.012949	71.226273	122.289223
1.013555	67.611675	118.299083
1.014160	63.540240	113.448123
1.014766	59.018043	107.531914
1.015371	53.958821	100.976936
1.015977	48.466454	93.856120
1.016582	42.728659	85.591702
1.017187	36.659778	76.753312
1.017793	30.295655	67.567883
1.018398	23.651477	57.782185
1.019004	16.850565	47.476469
1.019609	9.931191	36.773285
1.020215	2.972330	25.863504
1.020820	-4.047888	14.765563
1.021426	-10.966655	3.468074
1.022031	-17.772427	-7.912108
1.022637	-24.516235	-19.109824
1.023242	-31.070504	-30.043463
1.023848	-37.359905	-41.075793
1.024453	-43.287846	-51.673780
1.025059	-49.010454	-61.585552
1.025664	-54.285945	-71.348747
1.026270	-59.131329	-80.569693
1.026875	-63.547214	-89.157835
1.027480	-67.500187	-97.026683
1.028086	-70.928285	-104.139907
1.028691	-73.747064	-110.522179
1.029297	-76.102931	-116.032785
1.029902	-77.800881	-120.623737
1.030508	-78.971525	-124.257620
1.031113	-79.507336	-127.112290
1.031719	-79.340275	-128.931807
1.032324	-78.719415	-129.512014
1.032930	-77.498349	-129.460229
1.033535	-75.529456	-128.355125
1.034141	-73.044799	-126.069816
1.034746	-69.986059	-122.786227
1.035352	-66.406695	-118.737795
1.035957	-62.297596	-113.689727
1.036563	-57.676377	-107.783007
1.037168	-52.616547	-101.101956
1.037773	-47.317971	-93.632746
1.038379	-41.466575	-85.483013
1.038984	-35.363067	-76.612088
1.039590	-28.973429	-67.098870
1.040195	-22.333503	-57.295548
1.040801	-15.482777	-46.814686
1.041406	-8.613217	-35.963468
1.042012	-1.622766	-24.988888
1.042617	5.371937	-13.826419
1.043223	12.345985	-2.521068
1.043828	19.198535	8.799196
1.044434	25.878556	19.984439
1.045039	32.393337	31.040085
1.045645	38.733768	41.907029
1.046250	44.666569	52.390602
1.046855	50.367307	62.578107
1.047461	55.623358	72.041167
1.048066	60.477247	81.104048
1.048672	64.872478	89.667246
1.049277	68.776851	97.209118
1.049883	72.146021	104.214976
1.050488	74.970268	110.562273
1.051094	77.223469	115.873332
1.051699	78.907446	120.333331
1.052305	80.061688	123.933323
1.052910	80.455345	126.542897
1.053516	80.397025	128.157443
1.054121	79.596954	128.789164
1.054727	78.304811	128.471406
1.055332	76.354750	127.248905
1.055937	73.783222	124.914251
1.056543	70.698360	121.472054
1.057148	67.008432	117.507671
1.057754	62.844050	112.559105
1.058359	58.212504	106.498387
1.058965	53.178796	99.743590
1.059570	47.700402	92.338365
1.060176	41.868445	84.145794
1.060781	35.661056	75.255078
1.061387	29.279923	65.866848
1.061992	22.635744	55.902207
1.062598	15.749175	45.549858
1.063203	8.809147	34.800312
1.063809	1.875193	23.780997
1.064414	-5.053901	12.732400
1.065020	-12.047997	1.459041
1.065625	-18.848302	-10.020644
1.066230	-25.461498	-21.112078
1.066836	-31.994505	-32.021588
1.067441	-38.313065	-42.951975
1.068047	-44.208809	-53.473234
1.068652	-49.860948	-63.583740
1.069258	-55.040454	-73.168806
1.069863	-59.822659	-82.251208
1.070469	-64.120082	-90.656882
1.071074	-67.927864	-98.372274
1.071680	-71.311614	-105.388977
1.072285	-74.048989	-111.632976
1.072891	-76.251768	-117.084206
1.073496	-77.953363	-121.327848
1.074102	-79.020732	-124.889069
1.074707	-79.410137	-127.675958
1.075312	-79.156204	-129.106411
1.075918	-78.410807	-129.657065
1.076523	-76.990482	-129.251463
1.077129	-74.991822	-127.847580
1.077734	-72.408144	-125.449483
1.078340	-69.339684	-122.098384
1.078945	-65.610269	-117.876432
1.079551	-61.484159	-112.687108
1.080156	-56.773639	-106.626932
1.080762	-51.762409	-99.669605
1.081367	-46.226909	-92.166504
1.081973	-40.337848	-83.997250
1.082578	-34.193638	-74.812906
1.083184	-27.735961	-65.166565
1.083789	-21.144027	-55.347789
1.084395	-14.369845	-44.923050
1.085000	-7.403086	-34.070748
1.085605	-0.477637	-23.002359
1.086211	6.512206	-11.814404
1.086816	13.415785	-0.516644
1.087422	20.234922	10.759698
1.088027	26.947140	22.010553
1.088633	33.430332	33.012245
1.089238	39.668704	43.694553
1.089844	45.555335	54.209034
1.090449	51.103592	64.275618
1.091055	56.337166	73.504427
1.091660	61.132128	82.646747
1.092266	65.412541	90.990605
1.092871	69.273783	98.630081
1.093477	72.590101	105.468927
1.094082	75.280091	111.508227
1.094688	77.509599	116.736864
1.095293	79.061143	121.001924
1.095898	80.025846	124.367122
1.096504	80.392165	126.737835
1.097109	80.104820	128.302495
1.097715	79.238531	128.776963
1.098320	77.819422	128.089662
1.098926	75.763657	126.803176
1.099531	73.099789	124.375527
1.100137	69.908008	120.830302
1.100742	66.068636	116.505594
1.101348	61.895142	111.326302
1.101953	57.079525	105.230066
1.102559	51.919458	98.325066
1.103164	46.327462	90.710262
1.103770	40.520412	82.444488
1.104375	34.314238	73.468096
1.104980	27.841374	63.938610
1.105586	21.173503	53.892632
1.106191	14.298476	43.543265
1.106797	7.381532	32.722142
1.107402	0.408699	21.537712
1.108008	-6.587827	10.532766
1.108613	-13.492621	-0.708058
1.109219	-20.305076	-12.023712
1.109824	-26.892150	-23.229561
1.110430	-33.327350	-34.185976
1.111035	-39.436325	-44.919254
1.111641	-45.289544	-55.382493
1.112246	-50.857848	-65.385905
1.112852	-56.001512	-74.897497
1.113457	-60.721145	-83.850572
1.114062	-64.941416	-92.205546
1.114668	-68.679944	-99.909821
1.115273	-71.902707	-106.530412
1.115879	-74.529518	-112.630985
1.116484	-76.598648	-117.956414
1.117090	-78.048739	-122.052835
1.117695	-78.994610	-125.403934
1.118301	-79.311723	-127.818841
1.118906	-79.052322	-129.243058
1.119512	-78.071217	-129.636460
1.120117	-76.584068	-129.007180
1.120723	-74.480918	-127.493220
1.121328	-71.744151	-124.918350
1.121934	-68.510452	-121.306971
1.122539	-64.718465	-116.805219
1.123145	-60.441089	-111.583089
1.123750	-55.657670	-105.439949
1.124355	-50.573540	-98.194416
1.124961	-45.030143	-90.481736
1.125566	-39.096127	-82.244159
1.126172	-32.838923	-73.077708
1.126777	-26.327179	-63.351928
1.127383	-19.625896	-53.196416
1.127988	-12.746617	-42.694406
1.128594	-5.857010	-31.870572
1.129199	1.164423	-20.757176
1.129805	8.063750	-9.495476
1.130410	14.933309	1.670247
1.131016	21.864225	12.970447
1.131621	28.464056	24.296947
1.132227	34.904116	35.145182
1.132832	41.141880	45.774078
1.133438	46.969585	56.324077
1.134043	52.395735	66.195180
1.134648	57.544259	75.600219
1.135254	62.221975	84.372726
1.135859	66.493883	92.579395
1.136465	70.090864	100.048063
1.137070	73.269888	106.765987
1.137676	75.924036	112.575373
1.138281	77.963398	117.636997
1.138887	79.436575	121.853526
1.139492	80.237254	124.874396
1.140098	80.510020	127.193867
1.140703	80.056828	128.560334
1.141309	79.088480	128.638418
1.141914	77.564881	128.043571
1.142520	75.342663	126.391880
1.143125	72.559118	123.722117
1.143730	69.225790	120.137579
1.144336	65.390671	115.654263
1.144941	61.037966	110.214963
1.145547	56.249079	103.989672
1.146152	50.949895	96.966732
1.146758	45.333599	89.191151
1.147363	39.298739	80.688414
1.147969	33.071910	71.728290
1.148574	26.513996	61.932559
1.149180	19.870425	51.933486
1.149785	12.939509	41.616925
1.150391	6.017097	30.609811
1.150996	-0.943586	19.555249
1.151602	-7.941935	8.376242
1.152207	-14.812101	-2.912843
1.152813	-21.643996	-14.217923
1.153418	-28.299109	-25.381477
1.154023	-34.626175	-36.302103
1.154629	-40.713888	-47.032128
1.155234	-46.568929	-57.466899
1.155840	-52.040642	-67.417441
1.156445	-57.096827	-76.659535
1.157051	-61.677343	-85.542389
1.157656	-65.836257	-93.917155
1.158262	-69.458753	-101.183564
1.158867	-72.595860	-107.805782
1.159473	-75.155846	-113.739343
1.160078	-77.139319	-118.786326
1.160684	-78.574223	-122.831504
1.161289	-79.278918	-125.977905
1.161895	-79.427754	-128.193806
1.162500	-79.031667	-129.446401
1.163105	-78.040235	-129.601485
1.163711	-76.387239	-128.803294
1.164316	-74.081186	-127.126117
1.164922	-71.261800	-124.417854
1.165527	-67.938799	-120.531555
1.166133	-64.063585	-115.880413
1.166738	-59.661065	-110.581013
1.167344	-54.811429	-104.155903
1.167949	-49.586360	-96.920944
1.168555	-43.912959	-88.999227
1.169160	-37.907866	-80.504081
1.169766	-31.650055	-71.286117
1.170371	-25.091533	-61.460564
1.170977	-18.409690	-51.312100
1.171582	-11.461764	-40.775658
1.172187	-4.477995	-29.878620
1.172793	2.406144	-18.580588
1.173398	9.361360	-7.505150
1.174004	16.281341	3.748417
1.174609	23.089544	15.251147
1.175215	29.680870	26.417412
1.175820	36.106957	37.248024
1.176426	42.235980	47.861195
1.177031	48.019944	58.177484
1.177637	53.445487	68.026084
1.178242	58.471297	77.288241
1.178848	63.103451	85.935487
1.179453	67.227738	93.976500
1.180059	70.850233	101.365728
1.180664	73.879814	107.859704
1.181270	76.481109	113.561453
1.181875	78.378318	118.528726
1.182480	79.750650	122.326368
1.183086	80.463850	125.335308
1.183691	80.602966	127.450350
1.184297	80.030098	128.547320
1.184902	78.934784	128.657668
1.185508	77.196739	127.793594
1.186113	74.917416	125.920937
1.186719	72.135086	123.100699
1.187324	68.634697	119.351318
1.187930	64.655602	114.672521
1.188535	60.208127	109.113926
1.189141	55.290451	102.667939
1.189746	49.871591	95.370893
1.190352	44.189078	87.572809
1.190957	38.163330	79.132972
1.191563	31.857526	69.796256
1.192168	25.316015	60.123616
1.192773	18.525430	50.034530
1.193379	11.669235	39.427866
1.193984	4.639297	28.507782
1.194590	-2.308629	17.436682
1.195195	-9.348287	6.187182
1.195801	-16.200836	-5.094311
1.196406	-23.063106	-16.394511
1.197012	-29.566345	-27.523632
1.197617	-35.822334	-38.364547
1.198223	-41.926449	-48.989919
1.198828	-47.672141	-59.507111
1.199434	-53.094646	-69.167279
1.200039	-58.157514	-78.353792
1.200645	-62.677888	-87.178625
1.201250	-66.753575	-95.241056
1.201855	-70.261254	-102.569553
1.202461	-73.327284	-109.077898
1.203066	-75.682544	-114.813538
1.203672	-77.577930	-119.654196
1.204277	-78.801426	-123.508774
1.204883	-79.514019	-126.487077
1.205488	-79.566263	-128.589648
1.206094	-79.053537	-129.707765
1.206699	-77.939998	-129.591995
1.207305	-76.243870	-128.522680
1.207910	-73.814496	-126.806190
1.208516	-70.867535	-123.721606
1.209121	-67.401773	-119.765357
1.209727	-63.411743	-114.933917
1.210332	-58.931463	-109.275277
1.210937	-54.006497	-102.766932
1.211543	-48.700024	-95.473139
1.212148	-43.097093	-87.509669
1.212754	-37.014848	-78.847239
1.213359	-30.577825	-69.499407
1.213965	-24.033883	-59.526361
1.214570	-17.296758	-49.262941
1.215176	-10.317850	-38.815427
1.215781	-3.301884	-27.651332
1.216387	3.605340	-16.438162
1.216992	10.554481	-5.261866
1.217598	17.476893	5.997124
1.218203	24.200653	17.261536
1.218809	30.821747	28.386318
1.219414	37.208347	39.314265
1.220020	43.329472	49.887038
1.220625	49.098249	60.167810
1.221230	54.471547	69.903350
1.221836	59.409878	79.024251
1.222441	63.910205	87.551390
1.223047	67.946405	95.521910
1.223652	71.372680	102.766086
1.224258	74.403475	108.945828
1.224863	76.880234	114.645138
1.225469	78.710618	119.460852
1.226074	79.975423	123.233821
1.226680	80.671006	126.072767
1.227285	80.619976	127.878998
1.227891	79.975423	128.769914
1.228496	78.754358	128.698608
1.229102	76.954348	127.611398
1.229707	74.599088	125.528077
1.230312	71.576191	122.558450
1.230918	68.062436	118.626873
1.231523	64.063294	113.652280
1.232129	59.590912	108.072536
1.232734	54.538979	101.566089
1.233340	49.112221	94.098234
1.233945	43.313069	86.058849
1.234551	37.298256	77.423532
1.235156	30.933526	68.161104
1.235762	24.261402	58.301388
1.236367	17.472033	48.075655
1.236973	10.601866	37.454350
1.237578	3.644220	26.503087
1.238184	-3.334081	15.342516
1.238789	-10.348832	4.038520
1.239395	-17.214139	-7.167329
