LabVIEW Measurement	
Writer_Version	2
Reader_Version	2
Separator	Tab
Decimal_Separator	.
Multi_Headings	No
X_Columns	One
Time_Pref	Absolute
Operator	AlunosGDS-JT
Date	2019/10/09
Time	15:19:08.4651639249999940857
***End_of_Header***	
	
Channels	2		
Samples	2048	2048	
Date	2019/10/09	2019/10/09	
Time	15:31:00.4461600187499890021	15:31:00.4461600187499890021	
Y_Unit_Label	g	Newtons	
X_Dimension	Time	Time	
X0	0.0000000000000000E+0	0.0000000000000000E+0	
Delta_X	0.000605	0.000605	
***End_of_Header***			
X_Value	Acceleration (Trigger)	Force (Trigger)	Comment
0.000000	0.154765	-8.776724
0.000605	-1.591784	-21.900237
0.001211	-3.422168	-34.590765
0.001816	-5.262879	-46.761004
0.002422	-6.988167	-58.547330
0.003027	-8.506906	-69.712782
0.003633	-10.011672	-79.903269
0.004238	-11.405874	-88.921143
0.004844	-12.646380	-96.953750
0.005449	-13.594073	-104.040675
0.006055	-14.404472	-109.539081
0.006660	-15.138327	-113.255927
0.007266	-15.578761	-115.931113
0.007871	-15.788347	-117.143854
0.008477	-15.719092	-116.659354
0.009082	-15.583621	-114.443182
0.009687	-15.219731	-110.933746
0.010293	-14.566066	-106.009310
0.010898	-13.789079	-99.614295
0.011504	-12.828629	-91.727282
0.012109	-11.634292	-82.750619
0.012715	-10.249810	-72.767813
0.013320	-8.833131	-61.779406
0.013926	-7.263970	-49.695927
0.014531	-5.601862	-37.255377
0.015137	-3.816433	-24.390788
0.015742	-2.013993	-10.792536
0.016348	-0.194544	2.875124
0.016953	1.725749	16.298230
0.017559	3.646650	29.570861
0.018164	5.508623	42.472323
0.018770	7.323213	54.718206
0.019375	8.987750	66.101913
0.019980	10.598828	76.739756
0.020586	12.007003	86.295270
0.021191	13.389663	94.643195
0.021797	14.470397	101.684571
0.022402	15.495242	107.372222
0.023008	16.210264	111.946093
0.023613	16.699298	115.067279
0.024219	17.103283	116.392264
0.024824	17.360861	116.380335
0.025430	17.371796	114.872069
0.026035	17.019448	111.732447
0.026641	16.644016	107.265127
0.027246	15.922312	101.442185
0.027852	14.920551	94.391862
0.028457	13.777245	86.089486
0.029062	12.577441	76.567321
0.029668	11.126742	66.187588
0.030273	9.553329	55.047080
0.030879	7.775189	43.324739
0.031484	6.035322	30.746458
0.032090	4.126571	17.832253
0.032695	2.222680	5.078825
0.033301	0.399586	-8.053093
0.033906	-1.376123	-21.183384
0.034512	-3.205292	-33.932745
0.035117	-5.078201	-46.098375
0.035723	-6.832040	-57.885244
0.036328	-8.438866	-69.134202
0.036934	-9.946062	-79.373492
0.037539	-11.376107	-88.488970
0.038145	-12.592313	-96.605084
0.038750	-13.594680	-103.592506
0.039355	-14.482839	-109.316217
0.039961	-15.244638	-113.275720
0.040566	-15.637080	-115.855199
0.041172	-15.944473	-117.153614
0.041777	-15.916528	-116.735540
0.042383	-15.809002	-114.693430
0.042988	-15.361277	-111.180198
0.043594	-14.795092	-106.320290
0.044199	-13.983478	-99.987092
0.044805	-13.055224	-92.205004
0.045410	-11.905235	-83.266840
0.046016	-10.575428	-73.288372
0.046621	-9.152066	-62.401637
0.047227	-7.604775	-50.557832
0.047832	-5.891030	-37.881674
0.048438	-4.118358	-24.966927
0.049043	-2.314096	-11.646307
0.049648	-0.484320	2.058497
0.050254	1.357607	15.541792
0.050859	3.381174	28.827167
0.051465	5.265625	41.792343
0.052070	7.096617	54.032261
0.052676	8.798212	65.510319
0.053281	10.445739	76.160363
0.053887	11.829614	85.799925
0.054492	13.191619	94.112062
0.055098	14.326421	101.316112
0.055703	15.359163	107.249131
0.056309	16.144047	111.571128
0.056914	16.683503	114.870713
0.057520	17.140948	116.502612
0.058125	17.343244	116.442965
0.058730	17.369973	114.991093
0.059336	16.996971	111.972663
0.059941	16.671961	107.545470
0.060547	16.023763	101.818506
0.061152	14.977049	94.843827
0.061758	13.945521	86.600285
0.062363	12.774877	77.116077
0.062969	11.404975	66.889259
0.063574	9.712492	55.669582
0.064180	8.024870	43.804358
0.064785	6.272853	31.581521
0.065391	4.344055	18.723439
0.065996	2.465071	5.728710
0.066602	0.655342	-7.279032
0.067207	-1.103965	-20.412848
0.067812	-2.950752	-33.175765
0.068418	-4.789640	-45.402127
0.069023	-6.598762	-57.246475
0.069629	-8.115071	-68.475369
0.070234	-9.720682	-78.743941
0.070840	-11.182316	-88.045140
0.071445	-12.386372	-96.271330
0.072051	-13.442807	-103.237875
0.072656	-14.330965	-108.896516
0.073262	-15.049632	-113.225290
0.073867	-15.529554	-115.852216
0.074473	-15.779842	-117.047875
0.075078	-15.820544	-116.793832
0.075684	-15.736102	-114.868847
0.076289	-15.385577	-111.451051
0.076895	-14.771399	-106.660280
0.077500	-14.056377	-100.405166
0.078105	-13.081347	-92.672965
0.078711	-11.931965	-83.854910
0.079316	-10.659262	-73.871290
0.079922	-9.237115	-62.949037
0.080527	-7.731134	-51.309118
0.081133	-6.003417	-38.690168
0.081738	-4.228315	-25.603528
0.082344	-2.449568	-12.332252
0.082949	-0.655634	1.249733
0.083555	1.243397	14.760140
0.084160	3.153363	28.074525
0.084766	5.028094	41.014487
0.085371	6.837216	53.309985
0.085977	8.635403	64.830068
0.086582	10.272603	75.576632
0.087188	11.607271	85.252254
0.087793	12.977173	93.592858
0.088398	14.161790	100.826733
0.089004	15.214579	106.971228
0.089609	15.904087	111.491146
0.090215	16.518872	114.532350
0.090820	16.966596	116.344818
0.091426	17.195015	116.556024
0.092031	17.263054	115.168137
0.092637	16.958091	112.178718
0.093242	16.553499	107.820933
0.093848	15.905909	102.186151
0.094453	14.949104	95.319379
0.095059	13.833134	87.064992
0.095664	12.729315	77.642872
0.096270	11.337543	67.483564
0.096875	9.642023	56.384809
0.097480	8.035197	44.410051
0.098086	6.257058	32.175555
0.098691	4.406019	19.486926
0.099297	2.457173	6.502771
0.099902	0.671137	-6.604475
0.100508	-1.082095	-19.780857
0.101113	-2.874207	-32.527778
0.101719	-4.759873	-44.790199
0.102324	-6.458431	-56.598216
0.102930	-8.021517	-67.931764
0.103535	-9.612547	-78.262966
0.104141	-11.061424	-87.478760
0.104746	-12.303753	-95.879284
0.105352	-13.262988	-102.938011
0.105957	-14.158436	-108.524533
0.106563	-14.957293	-112.949557
0.107168	-15.369175	-115.796093
0.107773	-15.610958	-117.051400
0.108379	-15.688110	-116.835043
0.108984	-15.663810	-114.998987
0.109590	-15.276836	-111.667680
0.110195	-14.689995	-106.970176
0.110801	-13.911186	-100.791518
0.111406	-13.035177	-93.122760
0.112012	-11.934395	-84.370046
0.112617	-10.584540	-74.513313
0.113223	-9.163608	-63.528973
0.113828	-7.692254	-51.854892
0.114434	-6.014959	-39.561833
0.115039	-4.175463	-26.320652
0.115645	-2.498775	-12.995151
0.116250	-0.670213	0.517154
0.116855	1.233070	14.042745
0.117461	3.184953	27.357401
0.118066	5.036599	40.356196
0.118672	6.825066	52.654135
0.119277	8.627505	64.252843
0.119883	10.187554	74.952774
0.120488	11.629748	84.783750
0.121094	12.926751	93.259917
0.121699	14.146602	100.454479
0.122305	15.146540	106.585418
0.122910	15.905909	111.376731
0.123516	16.473917	114.433389
0.124121	16.886407	116.229590
0.124727	17.190762	116.463299
0.125332	17.145200	115.180066
0.125938	16.903417	112.384772
0.126543	16.530415	108.075790
0.127148	15.820252	102.491708
0.127754	14.918121	95.656930
0.128359	13.745655	87.497436
0.128965	12.630901	78.200033
0.129570	11.295626	67.959387
0.130176	9.625621	57.007853
0.130781	7.920988	45.068612
0.131387	6.173831	32.753864
0.131992	4.398122	20.189138
0.132598	2.381844	7.207966
0.133203	0.575152	-5.925850
0.133809	-1.108218	-19.038789
0.134414	-2.969584	-31.844002
0.135020	-4.775061	-44.153870
0.135625	-6.550162	-56.000115
0.136230	-8.103529	-67.358607
0.136836	-9.653857	-77.773044
0.137441	-11.120959	-87.026253
0.138047	-12.421607	-95.417558
0.138652	-13.374160	-102.692101
0.139258	-14.241663	-108.311971
0.139863	-15.007715	-112.574591
0.140469	-15.508291	-115.651313
0.141074	-15.733065	-117.107794
0.141680	-15.744607	-116.873814
0.142285	-15.668063	-115.094694
0.142891	-15.405625	-111.865601
0.143496	-14.728267	-107.184635
0.144102	-13.954925	-101.045020
0.144707	-12.981110	-93.476036
0.145313	-11.947153	-84.750163
0.145918	-10.596690	-75.001337
0.146523	-9.209778	-64.165031
0.147129	-7.703796	-52.331258
0.147734	-5.991874	-40.173490
0.148340	-4.189435	-27.171983
0.148945	-2.465970	-13.670252
0.149551	-0.645306	-0.164453
0.150156	1.288352	13.326163
0.150762	3.179486	26.639192
0.151367	5.065759	39.704142
0.151973	6.904041	52.067150
0.152578	8.670030	63.649862
0.153184	10.276856	74.434655
0.153789	11.789520	84.283526
0.154395	13.009371	92.931586
0.155000	14.265671	100.142414
0.155605	15.331218	106.171682
0.156211	16.076615	111.212972
0.156816	16.638549	114.482734
0.157422	17.099638	116.092672
0.158027	17.391843	116.438627
0.158633	17.371796	115.326203
0.159238	17.138518	112.560732
0.159844	16.795890	108.294587
0.160449	16.140402	102.769340
0.161055	15.139250	96.034606
0.161660	14.074918	88.013928
0.162266	12.912779	78.749060
0.162871	11.576289	68.449309
0.163477	9.931191	57.623848
0.164082	8.143939	45.925637
0.164687	6.396782	33.293130
0.165293	4.557893	20.736268
0.165898	2.624235	7.936206
0.166504	0.771981	-5.182155
0.167109	-1.055366	-18.350946
0.167715	-2.781260	-31.164292
0.168320	-4.773238	-43.501002
0.168926	-6.505208	-55.379782
0.169531	-8.095631	-66.807411
0.170137	-9.675119	-77.254382
0.170742	-11.139184	-86.626616
0.171348	-12.489646	-94.890763
0.171953	-13.517529	-102.372174
0.172559	-14.383817	-108.227109
0.173164	-15.134074	-112.373417
0.173770	-15.661380	-115.432787
0.174375	-15.879471	-117.108065
0.174980	-16.009475	-117.063058
0.175586	-15.931716	-115.304816
0.176191	-15.593948	-112.133201
0.176797	-15.011967	-107.563939
0.177402	-14.243486	-101.584015
0.178008	-13.306120	-93.992257
0.178613	-12.167674	-85.270180
0.179219	-10.882213	-75.628719
0.179824	-9.431514	-64.929602
0.180430	-7.952870	-53.040790
0.181035	-6.322959	-40.721704
0.181641	-4.456733	-28.035515
0.182246	-2.719296	-14.546255
0.182852	-0.987934	-0.847145
0.183457	0.951192	12.621781
0.184062	2.889103	25.892243
0.184668	4.831266	38.963972
0.185273	6.660435	51.396930
0.185879	8.428247	63.041188
0.186484	10.168722	73.881561
0.187090	11.576896	83.713893
0.187695	12.915209	92.416449
0.188301	14.108937	99.898944
0.188906	15.213972	105.848502
0.189512	16.011613	110.782155
0.190117	16.650699	114.485174
0.190723	17.062581	116.229590
0.191328	17.428293	116.518337
0.191934	17.451378	115.484810
0.192539	17.220529	112.800677
0.193145	16.857855	108.663588
0.193750	16.248537	103.149728
0.194355	15.262571	96.443191
0.194961	14.163005	88.534487
0.195566	13.070120	79.338756
0.196172	11.717835	69.012706
0.196777	10.158394	58.176129
0.197383	8.388152	46.699697
0.197988	6.700530	34.156120
0.198594	4.860426	21.295869
0.199199	2.958965	8.638148
0.199805	1.018624	-4.368781
0.200410	-0.676896	-17.598575
0.201016	-2.527327	-30.476178
0.201621	-4.475565	-42.813159
0.202227	-6.199030	-54.679196
0.202832	-7.847165	-66.124990
0.203437	-9.355577	-76.699933
0.204043	-10.913803	-86.171127
0.204648	-12.205338	-94.499260
0.205254	-13.285465	-101.846735
0.205859	-14.207643	-108.051420
0.206465	-14.953040	-112.333562
0.207070	-15.553853	-115.219954
0.207676	-15.790777	-117.066312
0.208281	-15.866714	-117.134906
0.208887	-15.844844	-115.457188
0.209492	-15.574508	-112.358776
0.210098	-14.984023	-107.880070
0.210703	-14.286618	-101.962234
0.211309	-13.409394	-94.516612
0.211914	-12.302538	-85.909763
0.212520	-10.987917	-76.138705
0.213125	-9.580350	-65.523365
0.213730	-8.051891	-53.835185
0.214336	-6.480301	-41.339055
0.214941	-4.734966	-28.660457
0.215547	-2.968976	-15.400026
0.216152	-1.182332	-1.696036
0.216758	0.745859	11.861006
0.217363	2.675264	25.203587
0.217969	4.573688	38.266910
0.218574	6.403464	50.716408
0.219180	8.194361	62.442274
0.219785	9.829132	73.288340
0.220391	11.263428	83.223700
0.220996	12.581086	91.908361
0.221602	13.824022	99.475448
0.222207	14.882887	105.703179
0.222812	15.721231	110.445147
0.223418	16.331764	114.105871
0.224023	16.821405	116.203833
0.224629	17.102068	116.563615
0.225234	17.141555	115.511923
0.225840	17.024308	112.943018
0.226445	16.658596	108.879674
0.227051	16.060821	103.501647
0.227656	15.230982	96.844455
0.228262	14.150855	88.973438
0.228867	13.013623	79.828136
0.229473	11.699003	69.759925
0.230078	10.216106	58.766367
0.230684	8.493249	47.206700
0.231289	6.769177	35.028328
0.231895	4.921783	22.170246
0.232500	2.996630	9.253058
0.233105	1.163816	-3.715371
0.233711	-0.598529	-16.869250
0.234316	-2.396108	-29.756343
0.234922	-4.206445	-42.133179
0.235527	-6.070849	-54.049374
0.236133	-7.666132	-65.538548
0.236738	-9.176973	-76.087191
0.237344	-10.685992	-85.649754
0.237949	-11.950798	-94.048922
0.238555	-13.063729	-101.393686
0.239160	-13.968290	-107.563125
0.239766	-14.717332	-112.218605
0.240371	-15.282910	-115.151901
0.240977	-15.563573	-116.807930
0.241582	-15.688110	-117.064685
0.242187	-15.663810	-115.510599
0.242793	-15.311463	-112.458008
0.243398	-14.843084	-108.066875
0.244004	-14.067919	-102.254778
0.244609	-13.117796	-94.843046
0.245215	-12.108746	-86.364167
0.245820	-10.871886	-76.647606
0.246426	-9.427261	-65.981294
0.247031	-8.016049	-54.550683
0.247637	-6.316884	-42.110675
0.248242	-4.587952	-29.139805
0.248848	-2.848085	-15.985384
0.249453	-1.071160	-2.441628
0.250059	0.740999	11.105653
0.250664	2.683769	24.425731
0.251270	4.605278	37.554395
0.251875	6.438699	50.041036
0.252480	8.224736	61.785610
0.253086	9.886844	72.674514
0.253691	11.335113	82.752485
0.254297	12.584731	91.459108
0.254902	13.873229	99.019145
0.255508	14.906579	105.407924
0.256113	15.664126	110.255089
0.256719	16.362746	113.787029
0.257324	16.776450	115.965785
0.257930	17.099638	116.552499
0.258535	17.216884	115.629049
0.259141	16.964166	113.068277
0.259746	16.610604	109.093049
0.260352	15.992781	103.719903
0.260957	15.128922	97.139439
0.261562	14.046973	89.339185
0.262168	12.890301	80.220182
0.262773	11.621851	70.237647
0.263379	10.055727	59.344676
0.263984	8.403947	47.672492
0.264590	6.623378	35.559732
0.265195	4.805144	22.923701
0.265801	2.898215	9.925990
0.266406	1.021054	-3.111035
0.267012	-0.783815	-16.224516
0.267617	-2.537655	-29.138450
0.268223	-4.338879	-41.536976
0.268828	-6.184450	-53.484079
0.269434	-7.821651	-64.961595
0.270039	-9.316090	-75.630346
0.270645	-10.802024	-85.165797
0.271250	-12.191973	-93.772646
0.271855	-13.242941	-101.104396
0.272461	-14.142034	-107.177044
0.273066	-14.915983	-112.022040
0.273672	-15.425064	-115.199077
0.274277	-15.764654	-116.869476
0.274883	-15.869751	-117.101287
0.275488	-15.815077	-115.684119
0.276094	-15.545349	-112.731573
0.276699	-14.954863	-108.345591
0.277305	-14.229513	-102.572535
0.277910	-13.382057	-95.348693
0.278516	-12.308005	-86.849209
0.279121	-10.943570	-77.207207
0.279727	-9.532358	-66.513241
0.280332	-8.101099	-55.101337
0.280938	-6.353334	-42.884194
0.281543	-4.732536	-29.868859
0.282148	-2.929489	-16.570200
0.282754	-1.072983	-3.118355
0.283359	0.775626	10.403440
0.283965	2.717182	23.773405
0.284570	4.652662	36.910474
0.285176	6.465429	49.417450
0.285781	8.199829	61.194287
0.286387	9.928153	72.187575
0.286992	11.411657	82.297809
0.287598	12.684968	91.113966
0.288203	13.975896	98.632522
0.288809	15.035976	105.013980
0.289414	15.861562	110.265121
0.290020	16.439898	113.764254
0.290625	16.952624	115.835375
0.291230	17.333524	116.591812
0.291836	17.383338	115.713368
0.292441	17.200482	113.318796
0.293047	16.905847	109.385050
0.293652	16.233349	104.100833
0.294258	15.427203	97.639392
0.294863	14.280251	89.836156
0.295469	13.136337	80.784121
0.296074	11.904336	70.791554
0.296680	10.347325	60.087828
0.297285	8.605028	48.450620
0.297891	6.812916	36.043147
0.298496	5.057254	23.614526
0.299102	3.122381	10.749666
0.299707	1.222743	-2.303626
0.300312	-0.571192	-15.499529
0.300918	-2.308629	-28.408040
0.301523	-4.201585	-40.831781
0.302129	-6.011921	-52.796507
0.302734	-7.629075	-64.307914
0.303340	-9.213423	-75.039295
0.303945	-10.717582	-84.716815
0.304551	-12.044352	-93.187288
0.305156	-13.184621	-100.824053
0.305762	-14.107407	-107.023587
0.306367	-14.934208	-111.531575
0.306973	-15.524086	-114.944491
0.307578	-15.789562	-116.873000
0.308184	-15.897696	-117.160392
0.308789	-15.847881	-115.786062
0.309395	-15.677175	-112.943863
0.310000	-15.079400	-108.675820
0.310605	-14.410547	-102.997930
0.311211	-13.488369	-95.786288
0.311816	-12.453196	-87.322864
0.312422	-11.170166	-77.795005
0.313027	-9.746196	-67.362132
0.313633	-8.289422	-55.710283
0.314238	-6.694746	-43.491241
0.314844	-4.926327	-30.927872
0.315449	-3.071036	-17.452168
0.316055	-1.342711	-3.858525
0.316660	0.545993	9.678724
0.317266	2.487548	23.023475
0.317871	4.513546	36.142378
0.318477	6.254628	48.717135
0.319082	8.001785	60.565549
0.319688	9.705202	71.545009
0.320293	11.242166	81.682628
0.320898	12.539169	90.628111
0.321504	13.764487	98.351908
0.322109	14.852512	104.605938
0.322715	15.719408	109.779265
0.323320	16.320829	113.774828
0.323926	16.809862	115.862216
0.324531	17.202912	116.500172
0.325137	17.279457	115.790368
0.325742	17.088095	113.490418
0.326348	16.755188	109.595443
0.326953	16.322044	104.429165
0.327559	15.364631	98.014086
0.328164	14.276606	90.377321
0.328770	13.155777	81.373003
0.329375	11.929244	71.359289
0.329980	10.422655	60.569345
0.330586	8.649983	49.261825
0.331191	6.866376	36.905865
0.331797	5.162351	24.119902
0.332402	3.236590	11.390333
0.333008	1.327839	-1.502724
0.333613	-0.381046	-14.732246
0.334219	-2.217504	-27.736736
0.334824	-4.075226	-40.181082
0.335430	-5.943882	-52.149062
0.336035	-7.565895	-63.722827
0.336641	-9.090709	-74.524158
0.337246	-10.549913	-84.218216
0.337852	-11.919815	-92.780601
0.338457	-13.028495	-100.288311
0.339062	-13.913616	-106.779846
0.339668	-14.717332	-111.519104
0.340273	-15.338800	-114.664148
0.340879	-15.662595	-116.702734
0.341484	-15.747037	-117.122706
0.342090	-15.756150	-115.899121
0.342695	-15.593341	-113.101115
0.343301	-15.017435	-108.886755
0.343906	-14.264748	-103.324093
0.344512	-13.430657	-96.216291
0.345117	-12.377259	-87.732262
0.345723	-11.152549	-78.277335
0.346328	-9.728579	-67.880793
0.346934	-8.203158	-56.482988
0.347539	-6.670447	-44.096391
0.348145	-4.939084	-31.334016
0.348750	-3.044913	-18.266897
0.349355	-1.339673	-4.662138
0.349961	0.479776	8.973258
0.350566	2.401284	22.261072
0.351172	4.390832	35.439081
0.351777	6.246123	48.060200
0.352383	7.933746	59.912139
0.352988	9.699128	71.011165
0.353594	11.189314	81.171558
0.354199	12.579871	90.167742
0.354805	13.780890	97.906992
0.355410	14.857372	104.515111
0.356016	15.716978	109.558841
0.356621	16.339053	113.316899
0.357227	16.851780	115.834561
0.357832	17.195622	116.633836
0.358438	17.300719	115.822903
0.359043	17.056506	113.632216
0.359648	16.758833	109.898831
0.360254	16.208442	104.745296
0.360859	15.381033	98.367904
0.361465	14.283896	90.735748
0.362070	13.104747	81.809243
0.362676	11.900084	71.962541
0.363281	10.394710	61.251223
0.363887	8.699190	49.652515
0.364492	6.945958	37.484445
0.365098	5.162351	25.032779
0.365703	3.267573	12.065705
0.366309	1.305969	-0.960746
0.366914	-0.405345	-14.080734
0.367520	-2.164652	-27.050520
0.368125	-4.041814	-39.571865
0.368730	-5.863693	-51.591359
0.369336	-7.499070	-63.102494
0.369941	-9.063371	-73.955881
0.370547	-10.566315	-83.715009
0.371152	-11.920423	-92.370932
0.371758	-13.041252	-100.124010
0.372363	-13.984693	-106.338184
0.372969	-14.835794	-111.214088
0.373574	-15.386185	-114.812996
0.374180	-15.724560	-116.767262
0.374785	-15.858816	-117.208110
0.375391	-15.814469	-116.044444
0.375996	-15.697222	-113.352177
0.376602	-15.169309	-109.210207
0.377207	-14.386855	-103.683062
0.377812	-13.554586	-96.675034
0.378418	-12.488431	-88.333887
0.379023	-11.257645	-78.954604
0.379629	-9.864051	-68.435785
0.380234	-8.432184	-57.002191
0.380840	-6.789516	-44.985409
0.381445	-5.046611	-32.259093
0.382051	-3.278799	-18.837886
0.382656	-1.501267	-5.333714
0.383262	0.401409	8.188623
0.383867	2.247588	21.553166
0.384473	4.221340	34.741749
0.385078	6.003125	47.373713
0.385684	7.877856	59.317292
0.386289	9.620761	70.448582
0.386895	11.101227	80.675942
0.387500	12.425567	89.758886
0.388105	13.694625	97.549650
0.388711	14.779612	104.010819
0.389316	15.696931	109.483740
0.389922	16.301389	113.477675
0.390527	16.786170	115.622542
0.391133	17.213847	116.527284
0.391738	17.307401	115.962532
0.392344	17.215669	113.832035
0.392949	16.883369	110.127660
0.393555	16.249752	105.062783
0.394160	15.521365	98.807668
0.394766	14.422405	91.236244
0.395371	13.262089	82.401379
0.395977	12.015508	72.499910
0.396582	10.489479	61.790490
0.397187	8.820689	50.531230
0.397793	7.070494	38.189911
0.398398	5.375582	25.504535
0.399004	3.418231	12.901039
0.399609	1.509480	-0.102094
0.400215	-0.251042	-13.353036
0.400820	-2.035863	-26.326075
0.401426	-3.874752	-38.826543
0.402031	-5.713641	-50.838446
0.402637	-7.297382	-62.478365
0.403242	-8.876263	-73.347477
0.403848	-10.412619	-83.145105
0.404453	-11.729062	-91.843323
0.405059	-12.879658	-99.556817
0.405664	-13.843754	-106.170901
0.406270	-14.643825	-111.018065
0.406875	-15.262863	-114.364556
0.407480	-15.589088	-116.570154
0.408086	-15.773767	-117.254201
0.408691	-15.734280	-116.110598
0.409297	-15.526516	-113.463067
0.409902	-15.051455	-109.447441
0.410508	-14.315170	-103.989975
0.411113	-13.476219	-97.024785
0.411719	-12.473244	-88.772567
0.412324	-11.187176	-79.390030
0.412930	-9.845826	-69.067776
0.413535	-8.358677	-57.763780
0.414141	-6.757926	-45.426800
0.414746	-5.047219	-32.816254
0.415352	-3.219872	-19.745068
0.415957	-1.497015	-6.106690
0.416563	0.341267	7.529520
0.417168	2.349647	20.881862
0.417773	4.254753	34.076952
0.418379	6.069949	46.738468
0.418984	7.855986	58.693434
0.419590	9.592208	69.845330
0.420195	11.083002	80.101972
0.420801	12.441970	89.199827
0.421406	13.701308	97.135101
0.422012	14.824567	103.829979
0.422617	15.657443	109.019032
0.423223	16.395551	113.009714
0.423828	16.856640	115.679749
0.424434	17.175575	116.568224
0.425039	17.306186	115.902885
0.425645	17.134265	113.868366
0.426250	16.884584	110.283015
0.426855	16.369428	105.333636
0.427461	15.511645	99.049782
0.428066	14.437593	91.639677
0.428672	13.370223	82.832196
0.429277	12.033733	73.068729
0.429883	10.529574	62.419770
0.430488	8.830409	50.930596
0.431094	7.123347	38.994338
0.431699	5.288103	26.378912
0.432305	3.359912	13.441662
0.432910	1.477283	0.471334
0.433516	-0.365858	-12.672513
0.434121	-2.099043	-25.673478
0.434727	-3.968307	-38.237390
0.435332	-5.802943	-50.234922
0.435937	-7.482061	-61.906292
0.436543	-9.047577	-72.800619
0.437148	-10.608233	-82.687989
0.437754	-11.899160	-91.501978
0.438359	-13.069197	-99.269425
0.438965	-13.989553	-105.685045
0.439570	-14.878926	-110.877894
0.440176	-15.428102	-114.493611
0.440781	-15.884939	-116.507524
0.441387	-15.979100	-117.195096
0.441992	-16.008868	-116.238840
0.442598	-15.762832	-113.654209
0.443203	-15.346090	-109.709618
0.443809	-14.565458	-104.301768
0.444414	-13.757489	-97.457771
0.445020	-12.738719	-89.228327
0.445625	-11.538916	-79.978913
0.446230	-10.066347	-69.576406
0.446836	-8.659387	-58.228759
0.447441	-7.082936	-46.323951
0.448047	-5.282927	-33.546664
0.448652	-3.544882	-20.242040
0.449258	-1.751555	-6.882106
0.449863	0.088548	6.729431
0.450469	2.128518	20.157959
0.451074	4.057924	33.393447
0.451680	5.877373	46.112713
0.452285	7.718692	58.117295
0.452891	9.448232	69.274612
0.453496	10.944493	79.588191
0.454102	12.410987	88.883696
0.454707	13.613221	96.745766
0.455313	14.804520	103.418683
0.455918	15.722446	109.039909
0.456523	16.414990	113.074513
0.457129	16.885799	115.461765
0.457734	17.281279	116.566055
0.458340	17.480538	116.168587
0.458945	17.342029	114.189377
0.459551	17.013373	110.605653
0.460156	16.560789	105.734629
0.460762	15.783803	99.559496
0.461367	14.711573	92.175419
0.461973	13.605931	83.452800
0.462578	12.404913	73.623993
0.463184	10.913511	63.062336
0.463789	9.200981	51.814733
0.464395	7.471441	39.548245
0.465000	5.710312	26.905165
0.465605	3.779691	14.352369
0.466211	1.867295	1.332697
0.466816	0.053314	-11.899537
0.467422	-1.650711	-24.899146
0.468027	-3.541237	-37.509963
0.468633	-5.477325	-49.571210
0.469238	-7.146723	-61.258305
0.469844	-8.639947	-72.203603
0.470449	-10.182986	-82.113477
0.471055	-11.582048	-90.913366
0.471660	-12.794001	-98.800108
0.472266	-13.753844	-105.536469
0.472871	-14.587936	-110.520281
0.473477	-15.312070	-114.066590
0.474082	-15.683250	-116.480683
0.474687	-15.807179	-117.334454
0.475293	-15.833909	-116.338614
0.475898	-15.687503	-113.849961
0.476504	-15.241601	-109.952546
0.477109	-14.600693	-104.718215
0.477715	-13.708282	-97.875031
0.478320	-12.722924	-89.720689
0.478926	-11.583870	-80.465039
0.479531	-10.152003	-70.302478
0.480137	-8.749904	-59.014749
0.480742	-7.179528	-46.739585
0.481348	-5.510738	-34.340517
0.481953	-3.671849	-21.275024
0.482559	-1.924084	-7.586217
0.483164	-0.155665	6.028574
0.483770	1.836313	19.346212
0.484375	3.700717	32.564890
0.484980	5.616758	45.339466
0.485586	7.448964	57.403695
0.486191	9.168784	68.643163
0.486797	10.727617	78.959724
0.487402	12.102380	88.257127
0.488008	13.343493	96.375681
0.488613	14.461285	103.091436
0.489219	15.473980	108.431234
0.489824	16.153767	112.833212
0.490430	16.618501	115.538764
0.491035	17.026738	116.480651
0.491641	17.208380	116.074778
0.492246	17.105713	114.231944
0.492852	16.908884	110.832855
0.493457	16.353633	105.979184
0.494063	15.617349	99.850684
0.494668	14.612551	92.571532
0.495273	13.445552	83.936215
0.495879	12.219019	74.159192
0.496484	10.780470	63.545751
0.497090	9.108642	52.348578
0.497695	7.381532	40.427502
0.498301	5.616150	27.660518
0.498906	3.758429	14.803791
0.499512	1.768881	1.995867
0.500117	0.057566	-11.145811
0.500723	-1.734546	-24.215099
0.501328	-3.534555	-36.861162
0.501934	-5.427511	-48.883095
0.502539	-7.107843	-60.574800
0.503145	-8.661209	-71.629090
0.503750	-10.152003	-81.646600
0.504355	-11.514616	-90.531894
0.504961	-12.754514	-98.311271
0.505566	-13.665757	-105.080166
0.506172	-14.509569	-110.451144
0.506777	-15.200899	-114.001520
0.507383	-15.636473	-116.247787
0.507988	-15.780449	-117.149818
0.508594	-15.771337	-116.389314
0.509199	-15.573901	-113.930485
0.509805	-15.235526	-110.124981
0.510410	-14.596441	-104.964125
0.511016	-13.706460	-98.249183
0.511621	-12.721102	-90.172383
0.512227	-11.518868	-80.959299
0.512832	-10.201818	-70.702115
0.513437	-8.732286	-59.681173
0.514043	-7.119993	-47.530997
0.514648	-5.460923	-34.772418
0.515254	-3.628717	-21.850079
0.515859	-1.869410	-8.370580
0.516465	-0.045708	5.336393
0.517070	1.865473	18.748111
0.517676	3.802776	31.933170
0.518281	5.641665	44.690936
0.518887	7.461114	56.826200
0.519492	9.114717	68.136160
0.520098	10.729440	78.541379
0.520703	12.185607	87.925542
0.521309	13.432795	95.960318
0.521914	14.517782	102.885652
0.522520	15.477625	108.377823
0.523125	16.176852	112.447673
0.523730	16.676213	115.376361
0.524336	17.044963	116.651459
0.524941	17.282494	116.257787
0.525547	17.204735	114.452097
0.526152	16.863322	111.054364
0.526758	16.469058	106.335712
0.527363	15.671416	100.296684
0.527969	14.678768	93.016176
0.528574	13.539714	84.421528
0.529180	12.304676	74.785219
0.529785	10.849724	64.300019
0.530391	9.188224	52.889742
0.530996	7.490881	40.995508
0.531602	5.679330	28.590746
0.532207	3.829506	15.630992
0.532813	1.894025	2.649278
0.533418	0.083081	-10.428415
0.534023	-1.621551	-23.502584
0.534629	-3.514507	-36.140512
0.535234	-5.331526	-48.284724
0.535840	-7.025831	-59.967752
0.536445	-8.538495	-70.998454
0.537051	-10.101581	-81.104351
0.537656	-11.466016	-90.061222
0.538262	-12.661567	-98.064005
0.538867	-13.595895	-104.637149
0.539473	-14.465829	-110.038763
0.540078	-15.111597	-113.993115
0.540684	-15.489459	-116.255378
0.541289	-15.696007	-117.120266
0.541895	-15.777412	-116.444623
0.542500	-15.540489	-114.107530
0.543105	-15.145009	-110.429996
0.543711	-14.552093	-105.232538
0.544316	-13.666365	-98.622793
0.544922	-12.759374	-90.647935
0.545527	-11.534056	-81.540319
0.546133	-10.170836	-71.331666
0.546738	-8.777849	-60.122835
0.547344	-7.219623	-48.309125
0.547949	-5.422043	-35.681770
0.548555	-3.707083	-22.355998
0.549160	-1.945347	-8.972476
0.549766	-0.091270	4.552301
0.550371	1.851500	18.026107
0.550977	3.725624	31.250749
0.551582	5.579093	44.071958
0.552187	7.423449	56.172789
0.552793	9.153597	67.519352
0.553398	10.701495	78.019735
0.554004	12.090837	87.474390
0.554609	13.346531	95.549022
0.555215	14.489837	102.347470
0.555820	15.450895	108.169599
0.556426	16.097270	112.466381
0.557031	16.667101	115.138584
0.557637	17.068656	116.485802
0.558242	17.252119	116.300895
0.558848	17.147630	114.565427
0.559453	16.879724	111.250658
0.560059	16.439898	106.552341
0.560664	15.616134	100.626372
0.561270	14.639889	93.428557
0.561875	13.512984	84.879186
0.562480	12.361173	75.231219
0.563086	10.880706	64.761473
0.563691	9.222244	53.666243
0.564297	7.481769	41.551856
0.564902	5.706667	28.922874
0.565508	3.867171	16.347846
0.566113	1.957205	3.439877
0.566719	0.136541	-9.729998
0.567324	-1.588747	-22.838328
0.567930	-3.510862	-35.515842
0.568535	-5.362509	-47.649479
0.569141	-7.037374	-59.360433
0.569746	-8.622330	-70.478709
0.570352	-10.102796	-80.596535
0.570957	-11.566253	-89.575909
0.571562	-12.718064	-97.512267
0.572168	-13.733797	-104.517312
0.572773	-14.577001	-109.823219
0.573379	-15.250106	-113.494788
0.573984	-15.713625	-116.177837
0.574590	-15.838769	-117.231969
0.575195	-15.908631	-116.547380
0.575801	-15.766477	-114.304908
0.576406	-15.290200	-110.618428
0.577012	-14.629245	-105.598286
0.577617	-13.858334	-99.042494
0.578223	-12.919145	-91.114541
0.578828	-11.670135	-82.037291
0.579434	-10.283830	-71.921633
0.580039	-8.868365	-60.865987
0.580645	-7.332009	-48.794709
0.581250	-5.648639	-36.252487
0.581855	-3.772693	-23.334215
0.582461	-2.055303	-9.836822
0.583066	-0.223097	3.840057
0.583672	1.703272	17.309796
0.584277	3.687959	30.556941
0.584883	5.527456	43.408788
0.585488	7.370597	55.635692
0.586094	9.083735	66.910406
0.586699	10.679625	77.510292
0.587305	12.056210	86.940004
0.587910	13.339241	95.177852
0.588516	14.526287	102.263150
0.589121	15.509215	107.812257
0.589727	16.283164	112.166517
0.590332	16.744860	115.249203
0.590938	17.157350	116.588287
0.591543	17.398526	116.326652
0.592148	17.313476	114.746267
0.592754	17.055898	111.529374
0.593359	16.623969	106.928662
0.593965	15.921704	101.040108
0.594570	14.891999	93.887842
0.595176	13.837994	85.467255
0.595781	12.586554	75.917164
0.596387	11.155294	65.471548
0.596992	9.490149	54.182464
0.597598	7.789162	42.361433
0.598203	5.918075	29.951249
0.598809	4.149656	16.984988
0.599414	2.260345	4.047467
0.600020	0.390474	-9.023448
0.600625	-1.386451	-22.159161
0.601230	-3.206507	-34.841284
0.601836	-5.066658	-46.999593
0.602441	-6.775543	-58.753656
0.603047	-8.337414	-69.876541
0.603652	-9.907790	-80.070553
0.604258	-11.331760	-89.208806
0.604863	-12.491469	-97.193967
0.605469	-13.547903	-103.962049
0.606074	-14.422697	-109.543690
0.606680	-15.120709	-113.623030
0.607285	-15.550816	-115.995641
0.607891	-15.785309	-117.066312
0.608496	-15.837554	-116.613263
0.609102	-15.720307	-114.500389
0.609707	-15.333333	-110.882232
0.610313	-14.713080	-105.925804
0.610918	-13.922728	-99.474395
0.611523	-12.973820	-91.594702
0.612129	-11.812289	-82.622106
0.612734	-10.490986	-72.520819
0.613340	-9.074914	-61.477916
0.613945	-7.548885	-49.736053
0.614551	-5.841215	-37.136082
0.615156	-4.094666	-23.881345
0.615762	-2.307414	-10.545541
0.616367	-0.521377	2.990081
0.616973	1.433544	16.515943
0.617578	3.397577	29.826261
0.618184	5.164781	42.663195
0.618789	6.938668	54.870578
0.619395	8.676713	66.246151
0.620000	10.308446	76.890772
0.620605	11.716013	86.467705
0.621211	12.988108	94.687117
0.621816	14.216464	101.689722
0.622422	15.138035	107.645786
0.623027	15.887684	112.065388
0.623633	16.420458	114.832485
0.624238	16.884584	116.379522
0.624844	17.119685	116.383046
0.625449	17.037066	114.836009
0.626055	16.747898	111.605560
0.626660	16.355456	107.117364
0.627266	15.669593	101.317468
0.627871	14.757135	94.296698
0.628477	13.613221	85.884787
0.629082	12.425567	76.349337
0.629687	11.048375	66.000783
0.630293	9.389912	54.984993
0.630898	7.708972	42.879281
0.631504	5.914430	30.372035
0.632109	4.121711	17.777757
0.632715	2.175296	4.860841
0.633320	0.367389	-8.292496
0.633926	-1.357898	-21.434988
0.634531	-3.125710	-34.108976
0.635137	-5.062406	-46.317444
0.635742	-6.777973	-58.077200
0.636348	-8.303395	-69.299859
0.636953	-9.768066	-79.526135
0.637559	-11.255823	-88.586304
0.638164	-12.492684	-96.716516
0.638770	-13.415469	-103.844110
0.639375	-14.295730	-109.217798
0.639980	-15.015612	-113.094337
0.640586	-15.422634	-115.890987
0.641191	-15.597593	-117.137889
0.641797	-15.668670	-116.648780
0.642402	-15.604276	-114.547294
0.643008	-15.261648	-111.092896
0.643613	-14.488914	-106.182288
0.644219	-13.748377	-99.746875
0.644824	-12.742364	-91.920865
0.645430	-11.632470	-82.977551
0.646035	-10.251633	-73.020772
0.646641	-8.820981	-62.074661
0.647246	-7.299812	-50.052456
0.647852	-5.663827	-37.636849
0.648457	-3.817040	-24.785003
0.649062	-2.036471	-11.210881
0.649668	-0.343381	2.396590
0.650273	1.700842	15.927060
0.650879	3.661837	29.195625
0.651484	5.452126	42.082717
0.652090	7.315315	54.335921
0.652695	8.952516	65.755145
0.653301	10.606726	76.378618
0.653906	11.981488	85.929523
0.654512	13.258444	94.290191
0.655117	14.455210	101.548466
0.655723	15.402903	107.220121
0.656328	16.182320	111.792094
0.656934	16.694438	115.049927
0.657539	17.123330	116.543552
0.658145	17.354786	116.420461
0.658750	17.332309	114.929276
0.659355	17.133658	111.929825
0.659961	16.600277	107.451661
0.660566	15.859132	101.701109
0.661172	14.914476	94.641839
0.661777	13.740188	86.343259
0.662383	12.609639	76.950149
0.662988	11.141929	66.589395
0.663594	9.513234	55.333117
0.664199	7.805564	43.690215
0.664805	5.949665	31.271626
0.665410	4.161806	18.316752
0.666016	2.203848	5.459755
0.666621	0.377109	-7.606280
0.667227	-1.410750	-20.698071
0.667832	-3.264827	-33.488643
0.668438	-5.146240	-45.700635
0.669043	-6.928632	-57.510550
0.669648	-8.487466	-68.721008
0.670254	-10.025037	-79.045702
0.670859	-11.538308	-88.259328
0.671465	-12.698017	-96.438342
0.672070	-13.768424	-103.355001
0.672676	-14.686350	-109.073289
0.673281	-15.326650	-113.337807
0.673887	-15.808394	-115.882311
0.674492	-16.044102	-117.138431
0.675098	-16.146769	-116.759399
0.675703	-15.977278	-114.837126
0.676309	-15.599416	-111.359682
0.676914	-14.986453	-106.507095
0.677520	-14.195494	-100.217276
0.678125	-13.161536	-92.426784
0.678730	-12.009117	-83.620116
0.679336	-10.692067	-73.628634
0.679941	-9.269312	-62.626128
0.680547	-7.731134	-50.984311
0.681152	-6.023464	-38.421754
0.681758	-4.269017	-25.223682
0.682363	-2.510317	-11.962167
0.682969	-0.626474	1.604635
0.683574	1.353354	15.105011
0.684180	3.296125	28.464131
0.684785	5.127724	41.368575
0.685391	6.961145	53.639673
0.685996	8.781809	65.141319
0.686602	10.382560	75.856432
0.687207	11.831437	85.556998
0.687813	13.107785	93.842835
0.688418	14.391423	101.039836
0.689023	15.339116	107.127125
0.689629	16.151337	111.735971
0.690234	16.777665	114.653814
0.690840	17.248474	116.371388
0.691445	17.467780	116.563615
0.692051	17.397311	115.151598
0.692656	17.182257	112.179802
0.693262	16.803180	107.792193
0.693867	16.159235	102.119454
0.694473	15.148362	95.235060
0.695078	14.098003	86.934853
0.695684	12.903666	77.538489
0.696289	11.487594	67.330107
0.696895	9.884414	56.304014
0.697500	8.163379	44.288858
0.698105	6.415614	31.865660
0.698711	4.548781	19.370885
0.699316	2.585355	6.331420
0.699922	0.742821	-6.825170
0.700527	-0.922324	-19.928891
0.701133	-2.790980	-32.681234
0.701738	-4.693656	-44.909494
0.702344	-6.428056	-56.814031
0.702949	-8.038527	-68.093084
0.703555	-9.557265	-78.369518
0.704160	-11.055349	-87.598869
0.704766	-12.315295	-95.942727
0.705371	-13.371730	-103.133763
0.705977	-14.227083	-108.606955
0.706582	-15.010753	-112.826466
0.707187	-15.361277	-115.836491
0.707793	-15.652268	-117.144125
0.708398	-15.776804	-116.790307
0.709004	-15.635865	-114.835770
0.709609	-15.394690	-111.592849
0.710215	-14.756212	-106.842205
0.710820	-13.989553	-100.593868
0.711426	-13.080132	-92.919959
0.712031	-11.911918	-84.115460
0.712637	-10.602158	-74.295058
0.713242	-9.231648	-63.345421
0.713848	-7.694684	-51.411332
0.714453	-6.007669	-39.182801
0.715059	-4.212520	-26.243382
0.715664	-2.491485	-12.711284
0.716270	-0.696943	0.834370
0.716875	1.134656	14.314954
0.717480	3.091399	27.582163
0.718086	5.035384	40.641148
0.718691	6.826281	52.938273
0.719297	8.619000	64.491433
0.719902	10.220359	75.168047
0.720508	11.642506	84.978689
0.721113	12.915816	93.455127
0.721719	14.127162	100.665142
0.722324	15.131960	106.514926
0.722930	15.867637	111.363988
0.723535	16.461160	114.718341
0.724141	16.846920	116.231488
0.724746	17.180435	116.433204
0.725352	17.070478	115.105778
0.725957	16.918604	112.324312
0.726562	16.521910	107.969238
0.727168	15.848197	102.336625
0.727773	14.930879	95.534381
0.728379	13.822807	87.402271
0.728984	12.663098	78.032207
0.729590	11.314458	67.717815
0.730195	9.712492	56.773601
0.730801	7.884538	45.110908
0.731406	6.182943	32.483553
0.732012	4.305175	19.749917
0.732617	2.423761	7.063457
0.733223	0.522908	-6.083102
0.733828	-1.201164	-19.254604
0.734434	-2.986594	-32.083134
0.735039	-4.910532	-44.302717
0.735645	-6.659512	-56.162790
0.736250	-8.223813	-67.522366
0.736855	-9.746196	-77.945479
0.737461	-11.227878	-87.239900
0.738066	-12.499974	-95.464463
0.738672	-13.479864	-102.696168
0.739277	-14.385640	-108.673380
0.739883	-15.134682	-112.645626
0.740488	-15.628575	-115.492976
0.741094	-15.800497	-117.078241
0.741699	-15.863676	-116.868933
0.742305	-15.800497	-115.004139
0.742910	-15.380717	-111.657377
0.743516	-14.825466	-107.058020
0.744121	-14.026002	-100.928978
0.744727	-13.096534	-93.292213
0.745332	-11.903413	-84.473345
0.745938	-10.595475	-74.662432
0.746543	-9.161786	-63.921019
0.747148	-7.627252	-52.121949
0.747754	-5.937807	-39.562647
0.748359	-4.184575	-26.884049
0.748965	-2.357228	-13.489954
0.749570	-0.539602	0.218104
0.750176	1.311437	13.698688
0.750781	3.347762	27.061875
0.751387	5.149594	40.020815
0.751992	7.022502	52.433711
0.752598	8.807932	64.059260
0.753203	10.493124	74.798504
0.753809	11.889756	84.587456
0.754414	13.222601	93.131404
0.755020	14.447920	100.505721
0.755625	15.438745	106.512214
0.756230	16.275874	111.095846
0.756836	16.849957	114.633479
0.757441	17.276419	116.497732
0.758047	17.582597	116.655255
0.758652	17.567409	115.382868
0.759258	17.289784	112.589200
0.759863	16.898557	108.369689
0.760469	16.328726	102.753615
0.761074	15.360378	95.949473
0.761680	14.231044	87.893007
0.762285	13.080448	78.577709
0.762891	11.736060	68.419757
0.763496	10.136524	57.328593
0.764102	8.437359	45.635262
0.764707	6.640388	33.429777
0.765312	4.833696	20.537805
0.765918	2.856298	7.611128
0.766523	0.955445	-5.457075
0.767129	-0.788068	-18.566219
0.767734	-2.562562	-31.401255
0.768340	-4.481033	-43.746370
0.768945	-6.310809	-55.578787
0.769551	-7.962590	-66.955174
0.770156	-9.480721	-77.402416
0.770762	-10.991562	-86.871170
0.771367	-12.310435	-95.190085
0.771973	-13.384487	-102.307376
0.772578	-14.347367	-108.255035
0.773184	-15.095802	-112.800438
0.773789	-15.615818	-115.582990
0.774395	-15.873396	-116.997446
0.775000	-15.914098	-116.959218
0.775605	-15.911668	-115.255742
0.776211	-15.697830	-112.074909
0.776816	-15.093372	-107.476365
0.777422	-14.399005	-101.437337
0.778027	-13.507201	-93.917697
0.778633	-12.380904	-85.153867
0.779238	-11.063247	-75.409922
0.779844	-9.675727	-64.555450
0.780449	-8.156381	-52.996055
0.781055	-6.515535	-40.502093
0.781660	-4.749546	-27.419520
0.782266	-3.001781	-14.247476
0.782871	-1.234577	-0.702093
0.783477	0.595200	12.834614
0.784082	2.598112	26.146016
0.784687	4.527518	39.195241
0.785293	6.375520	51.640400
0.785898	8.117817	63.254834
0.786504	9.763522	74.058876
0.787109	11.288336	83.966310
0.787715	12.569544	92.536557
0.788320	13.796077	99.924159
0.788926	14.860409	106.150534
0.789531	15.627069	110.998512
0.790137	16.264939	114.179075
0.790742	16.801358	116.186481
0.791348	17.082020	116.590185
0.791953	17.178612	115.476135
0.792559	16.953839	112.749164
0.793164	16.530415	108.595807
0.793770	15.984884	103.108517
0.794375	15.073033	96.379476
0.794980	13.949166	88.364492
0.795586	12.885441	79.100166
0.796191	11.597551	68.992914
0.796797	9.999230	58.107263
0.797402	8.319505	46.272134
0.798008	6.625808	33.941660
0.798613	4.766264	21.444987
0.799219	2.861158	8.514515
0.799824	1.011334	-4.634755
0.800430	-0.682971	-17.771282
0.801035	-2.492092	-30.632888
0.801641	-4.304859	-42.975291
0.802246	-6.065381	-54.812861
0.802852	-7.642439	-66.201176
0.803457	-9.166646	-76.775847
0.804063	-10.620990	-86.152419
0.804668	-11.862103	-94.542911
0.805273	-12.914893	-101.899875
0.805879	-13.797584	-107.716853
0.806484	-14.612843	-112.194475
0.807090	-15.105522	-115.381273
0.807695	-15.378287	-116.893334
0.808301	-15.450579	-116.858902
0.808906	-15.475487	-115.251946
0.809512	-15.082437	-112.094701
0.810117	-14.555738	-107.553365
0.810723	-13.766602	-101.611670
0.811328	-12.801291	-94.138935
0.811934	-11.800139	-85.517174
0.812539	-10.498276	-75.857549
0.813145	-9.097391	-65.118305
0.813750	-7.576222	-53.344179
0.814355	-5.920797	-41.171771
0.814961	-4.182145	-28.272478
0.815566	-2.444708	-14.758546
0.816172	-0.624044	-1.196624
0.816777	1.213023	12.242478
0.817383	3.180093	25.567979
0.817988	5.048142	38.621541
0.818594	6.841469	51.027388
0.819199	8.584981	62.716923
0.819805	10.240406	73.581968
0.820410	11.664983	83.448191
0.821016	12.931611	92.193042
0.821621	14.134452	99.620228
0.822227	15.174485	105.701010
0.822832	15.976379	110.721965
0.823438	16.492142	114.278848
0.824043	16.973279	116.023264
0.824648	17.264877	116.482007
0.825254	17.328056	115.459867
0.825859	17.059543	112.846497
0.826465	16.683503	108.724591
0.827070	16.046241	103.323519
0.827676	15.130745	96.655481
0.828281	14.039683	88.727528
0.828887	12.840487	79.503600
0.829492	11.483342	69.363270
0.830098	9.925116	58.504189
0.830703	8.136649	46.988987
0.831309	6.427764	34.463846
0.831914	4.582193	21.741869
0.832520	2.651572	9.044021
0.833125	0.731886	-4.026622
0.833730	-1.044431	-17.252078
0.834336	-2.872385	-30.124259
0.834941	-4.755621	-42.497028
0.835547	-6.586005	-54.386111
0.836152	-8.177643	-65.848714
0.836758	-9.681802	-76.419048
0.837363	-11.207831	-85.919252
0.837969	-12.530348	-94.269888
0.838574	-13.599540	-101.722560
0.839180	-14.524149	-107.881968
0.839785	-15.308425	-112.151908
0.840391	-15.865499	-115.199348
0.840996	-16.061720	-117.025101
0.841602	-16.189901	-117.128399
0.842207	-16.211771	-115.526867
0.842812	-15.870359	-112.407579
0.843418	-15.278658	-107.979030
0.844023	-14.508961	-102.113250
0.844629	-13.679122	-94.756286
0.845234	-12.549788	-86.109310
0.845840	-11.254608	-76.443720
0.846445	-9.778394	-65.847901
0.847051	-8.318582	-54.215302
0.847656	-6.641287	-41.722967
0.848262	-4.821230	-29.046538
0.848867	-3.044913	-15.817287
0.849473	-1.221819	-2.055276
0.850078	0.686932	11.483058
0.850684	2.600542	24.810999
0.851289	4.537238	37.853445
0.851895	6.459961	50.421153
0.852500	8.283663	62.126414
0.853105	10.011988	73.060867
0.853711	11.496707	83.031472
0.854316	12.850814	91.770359
0.854922	14.113190	99.381368
0.855527	15.232804	105.644074
0.856133	16.008576	110.399869
0.856738	16.694438	114.184768
0.857344	17.178612	116.273783
0.857949	17.465350	116.701346
0.858555	17.523062	115.703608
0.859160	17.411283	113.175643
0.859766	17.051646	109.196619
0.860371	16.463590	103.800427
0.860977	15.608236	97.237857
0.861582	14.550587	89.357350
0.862187	13.375690	80.240245
0.862793	12.078687	70.225989
0.863398	10.576351	59.263067
0.864004	8.909991	47.706383
0.864609	7.179844	35.487342
0.865215	5.359787	22.669115
0.865820	3.421269	9.750572
0.866426	1.544715	-3.189390
0.867031	-0.196974	-16.347607
0.867637	-2.007311	-29.291093
0.868242	-3.882650	-41.636749
0.868848	-5.662004	-53.587920
0.869453	-7.286447	-65.094988
0.870059	-8.809438	-75.664508
0.870664	-10.343364	-85.277229
0.871270	-11.709622	-93.799758
0.871875	-12.747224	-101.197121
0.872480	-13.770247	-107.296067
0.873086	-14.573963	-112.059184
0.873691	-15.106737	-115.122891
0.874297	-15.470019	-116.820131
0.874902	-15.566611	-117.079868
0.875508	-15.544134	-115.599799
0.876113	-15.408055	-112.671112
0.876719	-14.763502	-108.303566
0.877324	-14.137174	-102.472762
0.877930	-13.238081	-95.201743
0.878535	-12.210198	-86.641257
0.879141	-10.938103	-77.039652
0.879746	-9.607687	-66.396386
0.880352	-8.135118	-54.920226
0.880957	-6.494273	-42.564538
0.881563	-4.774453	-29.603699
0.882168	-3.067391	-16.518415
0.882773	-1.318411	-2.968423
0.883379	0.541133	10.613561
0.883984	2.454136	23.967801
0.884590	4.363494	37.066100
0.885195	6.119764	49.569551
0.885801	7.903978	61.346930
0.886406	9.593423	72.290602
0.887012	11.000990	82.346612
0.887617	12.345985	91.113424
0.888223	13.561584	98.694880
0.888828	14.609514	105.130021
0.889434	15.461222	110.131456
0.890039	16.048063	113.665294
0.890645	16.582052	115.914001
0.891250	16.941082	116.530267
0.891855	17.014588	115.570215
0.892461	16.796498	113.161815
0.893066	16.485460	109.250844
0.893672	15.881002	103.930024
0.894277	14.929056	97.386704
0.894883	13.914539	89.628475
0.895488	12.753007	80.518690
0.896094	11.496099	70.580891
0.896699	9.948808	59.787422
0.897305	8.238708	48.105478
0.897910	6.512814	35.912465
0.898516	4.700047	23.403591
0.899121	2.801623	10.450887
0.899727	0.985212	-2.605387
0.900332	-0.773488	-15.751946
0.900937	-2.503635	-28.623584
0.901543	-4.423321	-41.046240
0.902148	-6.194778	-53.013407
0.902754	-7.735994	-64.495532
0.903359	-9.255948	-75.178924
0.903965	-10.714544	-84.744740
0.904570	-12.104494	-93.348065
0.905176	-13.143311	-100.917049
0.905781	-14.057592	-106.917849
0.906387	-14.824859	-111.639212
0.906992	-15.367352	-115.058363
0.907598	-15.631005	-116.800068
0.908203	-15.731242	-116.994193
0.908809	-15.660165	-115.618236
0.909414	-15.361885	-112.733199
0.910020	-14.865561	-108.442924
0.910625	-14.093434	-102.715418
0.911230	-13.224716	-95.537667
0.911836	-12.147626	-87.017578
0.912441	-10.877353	-77.495141
0.913047	-9.469178	-66.889291
0.913652	-7.974132	-55.306850
0.914258	-6.311417	-43.225810
0.914863	-4.569727	-30.371524
0.915469	-2.775793	-16.895278
0.916074	-0.926577	-3.440993
0.916680	0.937827	10.051249
0.917285	2.869055	23.458901
0.917891	4.805144	36.575093
0.918496	6.656182	49.138734
0.919102	8.402125	60.939972
0.919707	10.133487	71.961457
0.920312	11.605448	82.035090
0.920918	12.968668	90.978946
0.921523	14.121695	98.551998
0.922129	15.269861	104.874351
0.922734	16.108205	110.134439
0.923340	16.708411	113.851827
0.923945	17.134873	115.889599
0.924551	17.479930	116.556024
0.925156	17.521240	115.821818
0.925762	17.381516	113.489063
0.926367	16.995149	109.554232
0.926973	16.452048	104.371957
0.927578	15.477017	97.897232
0.928184	14.458247	90.198379
0.928789	13.421253	81.192977
0.929395	12.079295	71.166248
0.930000	10.533219	60.423751
0.930605	8.786062	49.011305
0.931211	7.026147	36.510837
0.931816	5.255298	23.891073
0.932422	3.307060	11.268327
0.933027	1.343634	-1.807739
0.933633	-0.435113	-15.056511
0.934238	-2.209607	-27.992135
0.934844	-4.107423	-40.445157
0.935449	-5.913507	-52.410155
0.936055	-7.557390	-63.957892
0.936660	-9.041502	-74.681681
0.937266	-10.644075	-84.392278
0.937871	-11.949583	-92.903420
0.938477	-13.096534	-100.582481
0.939082	-14.047872	-106.959602
0.939688	-14.809064	-111.503378
0.940293	-15.478524	-114.825739
0.940898	-15.736710	-116.866493
0.941504	-15.941436	-117.249592
0.942109	-15.884331	-115.888818
0.942715	-15.714232	-113.103284
0.943320	-15.177206	-108.936371
0.943926	-14.460362	-103.241400
0.944531	-13.623233	-96.130074
0.945137	-12.609323	-87.682104
0.945742	-11.319002	-78.198980
0.946348	-9.873163	-67.733301
0.946953	-8.399986	-56.231113
0.947559	-6.832040	-43.893319
0.948164	-5.131660	-31.280876
0.948770	-3.272724	-18.110730
0.949375	-1.529212	-4.389658
0.949980	0.285985	9.213474
0.950586	2.255485	22.547922
0.951191	4.154516	35.674960
0.951797	5.992797	48.287403
0.952402	7.866314	60.156423
0.953008	9.596461	71.204206
0.953613	11.022253	81.341824
0.954219	12.405520	90.280258
0.954824	13.618081	98.078343
0.955430	14.729190	104.566896
0.956035	15.641041	109.569686
0.956641	16.241247	113.499908
0.957246	16.741823	115.906138
0.957852	17.091740	116.580154
0.958457	17.219922	115.835375
0.959063	17.047393	113.579347
0.959668	16.722991	109.781977
0.960273	16.096663	104.599973
0.960879	15.333041	98.241831
0.961484	14.269316	90.622147
0.962090	13.123580	81.680459
0.962695	11.863027	71.781430
0.963301	10.357045	60.951089
0.963906	8.684002	49.487671
0.964512	6.927733	37.488783
0.965117	5.127724	24.716105
0.965723	3.225048	11.776144
0.966328	1.343027	-1.145382
0.966934	-0.361606	-14.258321
0.967539	-2.134885	-27.252778
0.968145	-4.029664	-39.713663
0.968750	-5.846683	-51.698453
0.969355	-7.451078	-63.255137
0.969961	-9.012342	-74.063789
0.970566	-10.486733	-83.772759
0.971172	-11.835981	-92.461487
0.971777	-12.936763	-100.064091
0.972383	-13.906326	-106.381022
0.972988	-14.659013	-111.385439
0.973594	-15.222161	-114.700750
0.974199	-15.548994	-116.561749
0.974805	-15.636473	-117.088002
0.975410	-15.629183	-115.900476
0.976016	-15.423242	-113.130397
0.976621	-14.863739	-109.013370
0.977227	-14.146286	-103.422240
0.977832	-13.315233	-96.377339
0.978437	-12.243610	-88.044055
0.979043	-10.969085	-78.607836
0.979648	-9.536610	-68.045637
0.980254	-8.143623	-56.751130
0.980859	-6.487590	-44.618848
0.981465	-4.791463	-31.714675
0.982070	-3.026689	-18.481628
0.982676	-1.183547	-5.070181
0.983281	0.624360	8.532138
0.983887	2.613907	21.947923
0.984492	4.555463	35.060320
0.985098	6.322060	47.728344
0.985703	8.093517	59.609293
0.986309	9.784177	70.703710
0.986914	11.356375	80.925648
0.987520	12.683145	90.002898
0.988125	13.963139	97.666776
0.988730	15.081538	104.327764
0.989336	15.906517	109.638552
0.989941	16.544994	113.296835
0.990547	17.066226	115.728280
0.991152	17.433760	116.643326
0.991758	17.504837	115.960363
0.992363	17.312261	113.753409
0.992969	16.978746	110.001587
0.993574	16.438075	104.933185
0.994180	15.656229	98.614898
0.994785	14.582176	91.065435
0.995391	13.379943	82.144082
0.995996	12.154017	72.251831
0.996602	10.587893	61.657639
0.997207	8.924571	50.136201
0.997812	7.143394	37.853717
0.998418	5.311187	25.478779
0.999023	3.370239	12.571894
0.999629	1.462703	-0.498207
1.000234	-0.297819	-13.684892
1.000840	-2.033433	-26.644375
1.001445	-3.968307	-39.170329
1.002051	-5.799906	-51.159728
1.002656	-7.462013	-62.806697
1.003262	-9.037857	-73.630803
1.003867	-10.537763	-83.407283
1.004473	-11.944115	-92.096554
1.005078	-13.024242	-99.907923
1.005684	-13.991983	-106.183915
1.006289	-14.865561	-111.030266
1.006895	-15.443289	-114.682314
1.007500	-15.796244	-116.827993
1.008105	-15.959661	-117.212448
1.008711	-15.993073	-116.096228
1.009316	-15.746430	-113.435683
1.009922	-15.297490	-109.434969
1.010527	-14.592796	-103.886947
1.011133	-13.760527	-96.920131
1.011738	-12.742364	-88.650290
1.012344	-11.484241	-79.285647
1.012949	-10.155648	-68.895883
1.013555	-8.673359	-57.404811
1.014160	-7.065926	-45.376370
1.014766	-5.276852	-32.773146
1.015371	-3.553387	-19.347871
1.015977	-1.760060	-5.787576
1.016582	0.134718	7.726898
1.017187	2.039824	21.093339
1.017793	3.916985	34.274601
1.018398	5.809334	46.986276
1.019004	7.621493	58.868581
1.019609	9.323088	70.021018
1.020215	10.837574	80.283354
1.020820	12.239066	89.491828
1.021426	13.525742	97.349831
1.022031	14.637459	103.824286
1.022637	15.542019	109.181165
1.023242	16.218162	113.388747
1.023848	16.732711	115.700355
1.024453	17.088703	116.480380
1.025059	17.332309	116.006996
1.025664	17.115433	113.969224
1.026270	16.853602	110.300909
1.026875	16.376718	105.269922
1.027480	15.546272	99.040564
1.028086	14.491660	91.554544
1.028691	13.390270	82.730524
1.029297	12.142474	72.864844
1.029902	10.715467	62.179283
1.030508	8.984105	50.930054
1.031113	7.299520	38.793705
1.031719	5.481894	25.950264
1.032324	3.627210	13.182195
1.032930	1.722104	0.328180
1.033535	-0.045101	-12.836815
1.034141	-1.731508	-25.906103
1.034746	-3.623857	-38.423652
1.035352	-5.470035	-50.414407
1.035957	-7.103591	-62.076287
1.036563	-8.573123	-72.960040
1.037168	-10.140461	-82.800506
1.037773	-11.496998	-91.562710
1.038379	-12.614183	-99.279186
1.038984	-13.561268	-105.847720
1.039590	-14.388677	-110.963840
1.040195	-15.005893	-114.257733
1.040801	-15.378895	-116.393652
1.041406	-15.450579	-117.141142
1.042012	-15.510721	-116.123070
1.042617	-15.269546	-113.484214
1.043223	-14.874066	-109.535827
1.043828	-14.111659	-104.167019
1.044434	-13.313410	-97.274491
1.045039	-12.255760	-89.028508
1.045645	-11.122174	-79.738425
1.046250	-9.723719	-69.325616
1.046855	-8.262085	-58.154200
1.047461	-6.692316	-45.988841
1.048066	-5.027779	-33.175223
1.048672	-3.219872	-20.134945
1.049277	-1.450845	-6.702622
1.049883	0.367996	7.003809
1.050488	2.277962	20.432879
1.051094	4.248070	33.622276
1.051699	6.097894	46.255053
1.052305	7.868744	58.312504
1.052910	9.498654	69.461146
1.053516	11.041085	79.781502
1.054121	12.416455	88.894812
1.054727	13.601679	96.758780
1.055332	14.704283	103.618502
1.055937	15.667771	108.949082
1.056543	16.333586	112.822638
1.057148	16.789208	115.549338
1.057754	17.114218	116.608351
1.058359	17.247867	116.015672
1.058965	17.129405	113.955397
1.059570	16.848135	110.413697
1.060176	16.267976	105.520170
1.060781	15.419913	99.316840
1.061387	14.380488	91.843563
1.061992	13.246901	83.095187
1.062598	12.033125	73.381878
1.063203	10.449992	62.780908
1.063809	8.783024	51.265435
1.064414	7.083252	39.198223
1.065020	5.227961	26.860700
1.065625	3.342294	13.901760
1.066230	1.439011	0.814036
1.066836	-0.274126	-12.264200
1.067441	-2.100865	-25.222869
1.068047	-3.996859	-37.836397
1.068652	-5.796868	-49.921502
1.069258	-7.439536	-61.540545
1.069863	-9.045754	-72.487741
1.070469	-10.581503	-82.381348
1.071074	-11.931965	-91.274775
1.071680	-13.080132	-99.125458
1.072285	-14.052732	-105.521828
1.072891	-14.943928	-110.654758
1.073496	-15.470627	-114.474632
1.074102	-15.822974	-116.590488
1.074707	-16.000363	-117.155512
1.075312	-15.997933	-116.301470
1.075918	-15.776804	-113.822578
1.076523	-15.262863	-109.858737
1.077129	-14.571533	-104.520294
1.077734	-13.802444	-97.715610
1.078340	-12.713204	-89.495385
1.078945	-11.428959	-80.292333
1.079551	-10.074244	-69.910703
1.080156	-8.661209	-58.639784
1.080762	-7.056814	-46.768053
1.081367	-5.278674	-34.010016
1.081973	-3.516330	-20.611311
1.082578	-1.777070	-7.193628
1.083184	0.177243	6.320304
1.083789	2.106041	19.741512
1.084395	4.034839	32.994080
1.085000	5.927188	45.743170
1.085605	7.782479	57.743143
1.086211	9.469494	68.946552
1.086816	11.078142	79.343907
1.087422	12.395193	88.644835
1.088027	13.718925	96.498229
1.088633	14.904149	103.241639
1.089238	15.808102	108.895399
1.089844	16.466628	113.004834
1.090449	17.033421	115.375276
1.091055	17.478108	116.593981
1.091660	17.634234	116.227150
1.092266	17.503622	114.243873
1.092871	17.213240	110.739046
1.093477	16.767338	105.910860
1.094082	15.985491	99.821403
1.094688	14.957001	92.463082
1.095293	13.791217	83.774083
1.095898	12.619966	74.010887
1.096504	11.169267	63.519180
1.097109	9.436082	52.226843
1.097715	7.725375	39.957643
1.098320	5.987937	27.425995
1.098926	3.997782	14.798911
1.099531	2.095106	1.802827
1.100137	0.286592	-11.472787
1.100742	-1.489117	-24.527706
1.101348	-3.391186	-37.042544
1.101953	-5.192410	-49.144188
1.102559	-6.901295	-60.872223
1.103164	-8.471671	-71.924074
1.103770	-10.054197	-81.879496
1.104375	-11.480596	-90.697551
1.104980	-12.653670	-98.649905
1.105586	-13.611690	-105.361594
1.106191	-14.454894	-110.326427
1.106797	-15.214264	-114.066048
1.107402	-15.545349	-116.573679
1.108008	-15.663203	-117.308968
1.108613	-15.737317	-116.381994
1.109219	-15.647408	-113.975492
1.109824	-15.219731	-110.143960
1.110430	-14.557561	-104.938368
1.111035	-13.767209	-98.159441
1.111641	-12.786104	-90.051190
1.112246	-11.554103	-80.897754
1.112852	-10.194528	-70.634876
1.113457	-8.829486	-59.400830
1.114062	-7.249390	-47.277767
1.114668	-5.541112	-34.926146
1.115273	-3.762366	-21.661919
1.115879	-2.031003	-8.002393
1.116484	-0.242537	5.541092
1.117090	1.687477	18.884758
1.117695	3.726839	32.134886
1.118301	5.470351	44.911631
1.118906	7.329288	56.972336
1.119512	9.026022	68.194723
1.120117	10.589108	78.639797
1.120723	11.988778	87.942894
1.121328	13.172787	96.053314
1.121934	14.388385	102.808382
1.122539	15.302666	108.234398
1.123145	15.964836	112.668097
1.123750	16.482422	115.377174
1.124355	16.978139	116.390909
1.124961	17.145200	116.049292
1.125566	17.053468	114.259599
1.126172	16.766730	110.915006
1.126777	16.354241	106.112577
1.127383	15.540197	100.043454
1.127988	14.566989	92.823136
1.128594	13.420038	84.212491
1.129199	12.242711	74.479933
1.129805	10.775610	63.910142
1.130410	9.131727	52.692092
1.131016	7.430739	40.839611
1.131621	5.643487	27.982343
1.132227	3.773616	15.212918
1.132832	1.893418	2.488230
1.133438	0.081259	-10.697913
1.134043	-1.659824	-23.814919
1.134648	-3.455580	-36.428989
1.135254	-5.354004	-48.479391
1.135859	-6.986344	-60.159979
1.136465	-8.536673	-71.283135
1.137070	-10.071814	-81.319624
1.137676	-11.544991	-90.225252
1.138281	-12.666427	-98.101692
1.138887	-13.598325	-104.839408
1.139492	-14.417837	-110.300670
1.140098	-15.095802	-113.892528
1.140703	-15.419597	-116.145302
1.141309	-15.618856	-117.135449
1.141914	-15.586658	-116.436490
1.142520	-15.499179	-114.081502
1.143125	-15.131037	-110.328596
1.143730	-14.356480	-105.148761
1.144336	-13.558838	-98.478284
1.144941	-12.523058	-90.396332
1.145547	-11.347555	-81.259705
1.146152	-9.978260	-71.027465
1.146758	-8.582842	-59.991068
1.147363	-6.912837	-47.962899
1.147969	-5.326667	-35.234143
1.148574	-3.547920	-22.254055
1.149180	-1.720573	-8.880565
1.149785	0.100091	4.803091
1.150391	1.995477	18.264968
1.150996	3.923060	31.470631
1.151602	5.855503	44.363146
1.152207	7.596586	56.422224
1.152813	9.343135	67.736252
1.153418	10.871594	78.189459
1.154023	12.259721	87.565488
1.154629	13.536677	95.652592
1.155234	14.667833	102.632151
1.155840	15.566927	108.192102
1.156445	16.304426	112.297199
1.157051	16.818367	115.212330
1.157656	17.215062	116.620551
1.158262	17.420395	116.244773
1.158867	17.344459	114.518251
1.159473	17.008514	111.158205
1.160078	16.547424	106.440095
1.160684	15.804457	100.428722
1.161289	14.792370	93.229823
1.161895	13.642381	84.698888
1.162500	12.491784	75.081829
1.163105	10.983981	64.600696
1.163711	9.370472	53.270130
1.164316	7.648223	41.301879
1.164922	5.866438	28.893592
1.165527	3.949790	16.058014
1.166133	2.014309	3.026412
1.166738	0.239207	-10.061313
1.167344	-1.545614	-23.145241
1.167949	-3.410626	-35.822483
1.168555	-5.219140	-47.909487
1.169160	-6.895220	-59.677106
1.169766	-8.444941	-70.743597
1.170371	-10.007419	-80.853018
1.170977	-11.479989	-89.844593
1.171582	-12.611145	-97.874489
1.172187	-13.611083	-104.585906
1.172793	-14.511999	-109.875275
1.173398	-15.188749	-113.914218
1.174004	-15.548994	-116.364370
1.174609	-15.756150	-117.251219
1.175215	-15.747037	-116.573950
1.175820	-15.657128	-114.322260
1.176426	-15.296275	-110.695698
1.177031	-14.604946	-105.566022
1.177637	-13.875951	-98.986371
1.178242	-12.821339	-90.960813
1.178848	-11.699294	-81.935348
1.179453	-10.259530	-71.833789
1.180059	-8.921217	-60.553110
1.180664	-7.395189	-48.672432
1.181270	-5.613404	-36.290444
1.181875	-3.885080	-23.011035
1.182480	-2.199280	-9.475141
1.183086	-0.367073	3.992700
1.183691	1.587240	17.428277
1.184297	3.562815	30.683286
1.184902	5.372544	43.552484
1.185508	7.233911	55.750920
1.186113	9.033920	67.103176
1.186719	10.586071	77.592443
1.187324	11.982096	87.146872
1.187930	13.158814	95.334834
1.188535	14.353151	102.128944
1.189141	15.360986	107.790567
1.189746	16.020118	112.385857
1.190352	16.538312	115.142380
1.190957	16.979961	116.332346
1.191563	17.198660	116.208442
1.192168	17.179220	114.669539
1.192773	16.884584	111.423636
1.193379	16.413168	106.710949
1.193984	15.702398	100.766001
1.194590	14.712788	93.661453
1.195195	13.593174	85.234359
1.195801	12.368463	75.628145
1.196406	10.996130	65.087094
1.197012	9.329770	53.992948
1.197617	7.613595	42.079193
1.198223	5.864616	29.292688
1.198828	4.057317	16.617886
1.199434	2.078096	3.831652
1.200039	0.253787	-9.307044
1.200645	-1.362151	-22.431370
1.201250	-3.222910	-35.181274
1.201855	-4.985254	-47.275327
1.202461	-6.725729	-58.967302
1.203066	-8.201335	-70.113233
1.203672	-9.749841	-80.332459
1.204277	-11.189606	-89.343284
1.204883	-12.383334	-97.230026
1.205488	-13.423367	-104.231004
1.206094	-14.234981	-109.795836
1.206699	-14.898973	-113.452493
1.207305	-15.327258	-115.970426
1.207910	-15.483384	-117.170424
1.208516	-15.501001	-116.598351
1.209121	-15.392867	-114.359947
1.209727	-14.975518	-110.706543
1.210332	-14.433632	-105.781023
1.210937	-13.584353	-99.319312
1.211543	-12.629370	-91.385665
1.212148	-11.438679	-82.297570
1.212754	-10.075459	-72.215804
1.213359	-8.643592	-61.274301
1.213965	-7.050739	-49.282191
1.214570	-5.427511	-36.609016
1.215176	-3.665774	-23.753103
1.215781	-1.842072	-10.349518
1.216387	-0.056035	3.367487
1.216992	1.784068	16.812824
1.217598	3.774224	30.040720
1.218203	5.706667	42.937302
1.218809	7.453824	55.145498
1.219414	9.162709	66.577736
1.220020	10.716682	77.087066
1.220625	12.107847	86.564225
1.221230	13.366578	94.807767
1.221836	14.514744	101.927227
1.222441	15.496457	107.625181
1.223047	16.218162	111.852826
1.223652	16.754580	115.055078
1.224258	17.117863	116.496647
1.224863	17.355393	116.336413
1.225469	17.275812	114.689060
1.226074	17.046178	111.602036
1.226680	16.492750	107.005390
1.227285	15.819037	101.087554
1.227891	14.817885	93.985176
1.228496	13.633268	85.620170
1.229102	12.463232	76.146807
1.229707	11.081787	65.725050
1.230312	9.431829	54.482599
1.230918	7.715655	42.656417
1.231523	5.857326	30.295577
1.232129	4.020259	17.279430
1.232734	2.067769	4.316694
1.233340	0.236777	-8.643331
1.233945	-1.553512	-21.791245
1.234551	-3.306136	-34.511596
1.235156	-5.195447	-46.724673
1.235762	-6.941390	-58.454606
1.236367	-8.446763	-69.642560
1.236973	-10.019569	-79.857449
1.237578	-11.447184	-88.985942
1.238184	-12.698017	-97.064369
1.238789	-13.674262	-103.888845
1.239395	-14.546626	-109.468317
